angle,intensity
5.0,35.0
5.01,58.0
5.02,43.0
5.03,41.0
5.04,41.0
5.05,47.0
5.06,52.0
5.07,36.0
5.08,40.0
5.09,49.0
5.1,52.0
5.11,49.0
5.12,38.0
5.13,51.0
5.14,44.0
5.15,44.0
5.16,49.0
5.17,52.0
5.18,47.0
5.19,51.0
5.2,39.0
5.21,47.0
5.22,54.0
5.23,43.0
5.24,54.0
5.25,54.0
5.26,39.0
5.27,52.0
5.28,41.0
5.29,58.0
5.3,47.0
5.31,51.0
5.32,43.0
5.33,52.0
5.34,44.0
5.35,46.0
5.36,48.0
5.37,49.0
5.38,35.0
5.39,49.0
5.4,45.0
5.41,52.0
5.42,51.0
5.43,41.0
5.44,50.0
5.45,50.0
5.46,44.0
5.47,46.0
5.48,49.0
5.49,41.0
5.5,42.0
5.51,50.0
5.52,54.0
5.53,42.0
5.54,44.0
5.55,52.0
5.56,48.0
5.57,42.0
5.58,37.0
5.59,56.0
5.6,49.0
5.61,44.0
5.62,53.0
5.63,47.0
5.64,39.0
5.65,53.0
5.66,53.0
5.67,37.0
5.68,55.0
5.69,50.0
5.7,43.0
5.71,41.0
5.72,46.0
5.73,49.0
5.74,66.0
5.75,56.0
5.76,43.0
5.77,46.0
5.78,35.0
5.79,49.0
5.8,48.0
5.81,48.0
5.82,34.0
5.83,35.0
5.84,29.0
5.85,61.0
5.86,59.0
5.87,38.0
5.88,46.0
5.89,49.0
5.9,55.0
5.91,30.0
5.92,43.0
5.93,45.0
5.94,43.0
5.95,32.0
5.96,46.0
5.97,56.0
5.98,43.0
5.99,52.0
6.0,54.0
6.01,56.0
6.02,50.0
6.03,71.0
6.04,41.0
6.05,49.0
6.06,36.0
6.07,60.0
6.08,57.0
6.09,42.0
6.1,63.0
6.11,57.0
6.12,52.0
6.13,64.0
6.14,42.0
6.15,55.0
6.16,61.0
6.17,56.0
6.18,65.0
6.19,47.0
6.2,61.0
6.21,65.0
6.22,62.0
6.23,77.0
6.24,87.0
6.25,81.0
6.26,96.0
6.27,96.0
6.28,102.0
6.29,112.0
6.3,108.0
6.31,97.0
6.32,104.0
6.33,102.0
6.34,83.0
6.35,75.0
6.36,63.0
6.37,61.0
6.38,66.0
6.39,62.0
6.4,41.0
6.41,59.0
6.42,57.0
6.43,46.0
6.44,58.0
6.45,58.0
6.46,40.0
6.47,38.0
6.48,57.0
6.49,49.0
6.5,62.0
6.51,41.0
6.52,46.0
6.53,50.0
6.54,46.0
6.55,39.0
6.56,62.0
6.57,50.0
6.58,58.0
6.59,53.0
6.6,45.0
6.61,60.0
6.62,53.0
6.63,60.0
6.64,46.0
6.65,49.0
6.66,56.0
6.67,45.0
6.68,56.0
6.69,45.0
6.7,57.0
6.71,55.0
6.72,43.0
6.73,67.0
6.74,57.0
6.75,49.0
6.76,52.0
6.77,63.0
6.78,61.0
6.79,54.0
6.8,59.0
6.81,50.0
6.82,56.0
6.83,63.0
6.84,73.0
6.85,58.0
6.86,50.0
6.87,48.0
6.88,66.0
6.89,53.0
6.9,48.0
6.91,52.0
6.92,55.0
6.93,56.0
6.94,62.0
6.95,48.0
6.96,54.0
6.97,53.0
6.98,51.0
6.99,62.0
7.0,51.0
7.01,52.0
7.02,54.0
7.03,54.0
7.04,72.0
7.05,61.0
7.06,48.0
7.07,47.0
7.08,50.0
7.09,57.0
7.1,60.0
7.11,54.0
7.12,52.0
7.13,59.0
7.14,67.0
7.15,64.0
7.16,53.0
7.17,53.0
7.18,63.0
7.19,62.0
7.2,67.0
7.21,52.0
7.22,47.0
7.23,58.0
7.24,57.0
7.25,42.0
7.26,56.0
7.27,51.0
7.28,59.0
7.29,54.0
7.3,64.0
7.31,41.0
7.32,57.0
7.33,47.0
7.34,50.0
7.35,54.0
7.36,54.0
7.37,63.0
7.38,57.0
7.39,48.0
7.4,51.0
7.41,64.0
7.42,50.0
7.43,60.0
7.44,53.0
7.45,47.0
7.46,58.0
7.47,50.0
7.48,50.0
7.49,58.0
7.5,52.0
7.51,48.0
7.52,56.0
7.53,57.0
7.54,52.0
7.55,58.0
7.56,45.0
7.57,53.0
7.58,61.0
7.59,54.0
7.6,63.0
7.61,59.0
7.62,56.0
7.63,61.0
7.64,47.0
7.65,63.0
7.66,65.0
7.67,59.0
7.68,61.0
7.69,53.0
7.7,49.0
7.71,56.0
7.72,56.0
7.73,54.0
7.74,52.0
7.75,56.0
7.76,57.0
7.77,56.0
7.78,53.0
7.79,52.0
7.8,57.0
7.81,61.0
7.82,64.0
7.83,61.0
7.84,59.0
7.85,70.0
7.86,55.0
7.87,61.0
7.88,63.0
7.89,52.0
7.9,62.0
7.91,67.0
7.92,61.0
7.93,66.0
7.94,66.0
7.95,55.0
7.96,66.0
7.97,59.0
7.98,49.0
7.99,56.0
8.0,58.0
8.01,48.0
8.02,57.0
8.03,57.0
8.04,57.0
8.05,70.0
8.06,54.0
8.07,55.0
8.08,59.0
8.09,64.0
8.1,50.0
8.11,59.0
8.12,71.0
8.13,51.0
8.14,64.0
8.15,51.0
8.16,67.0
8.17,65.0
8.18,53.0
8.19,64.0
8.2,55.0
8.21,70.0
8.22,65.0
8.23,60.0
8.24,51.0
8.25,58.0
8.26,56.0
8.27,56.0
8.28,55.0
8.29,79.0
8.3,64.0
8.31,59.0
8.32,47.0
8.33,66.0
8.34,48.0
8.35,47.0
8.36,61.0
8.37,50.0
8.38,79.0
8.39,58.0
8.4,67.0
8.41,66.0
8.42,66.0
8.43,55.0
8.44,60.0
8.45,55.0
8.46,65.0
8.47,59.0
8.48,48.0
8.49,54.0
8.5,52.0
8.51,70.0
8.52,63.0
8.53,53.0
8.54,59.0
8.55,56.0
8.56,67.0
8.57,54.0
8.58,49.0
8.59,50.0
8.6,60.0
8.61,63.0
8.62,69.0
8.63,60.0
8.64,50.0
8.65,50.0
8.66,64.0
8.67,62.0
8.68,53.0
8.69,66.0
8.7,52.0
8.71,58.0
8.72,52.0
8.73,58.0
8.74,48.0
8.75,56.0
8.76,58.0
8.77,47.0
8.78,62.0
8.79,48.0
8.8,53.0
8.81,51.0
8.82,48.0
8.83,57.0
8.84,52.0
8.85,47.0
8.86,46.0
8.87,43.0
8.88,62.0
8.89,64.0
8.9,62.0
8.91,64.0
8.92,63.0
8.93,74.0
8.94,71.0
8.95,78.0
8.96,84.0
8.97,74.0
8.98,73.0
8.99,43.0
9.0,59.0
9.01,59.0
9.02,54.0
9.03,38.0
9.04,37.0
9.05,55.0
9.06,50.0
9.07,69.0
9.08,52.0
9.09,55.0
9.1,62.0
9.11,42.0
9.12,47.0
9.13,51.0
9.14,59.0
9.15,40.0
9.16,44.0
9.17,41.0
9.18,35.0
9.19,42.0
9.2,55.0
9.21,44.0
9.22,44.0
9.23,53.0
9.24,43.0
9.25,33.0
9.26,43.0
9.27,59.0
9.28,44.0
9.29,56.0
9.3,41.0
9.31,42.0
9.32,47.0
9.33,40.0
9.34,51.0
9.35,53.0
9.36,44.0
9.37,53.0
9.38,50.0
9.39,55.0
9.4,53.0
9.41,38.0
9.42,42.0
9.43,43.0
9.44,48.0
9.45,42.0
9.46,34.0
9.47,51.0
9.48,39.0
9.49,44.0
9.5,51.0
9.51,45.0
9.52,60.0
9.53,45.0
9.54,57.0
9.55,52.0
9.56,38.0
9.57,50.0
9.58,43.0
9.59,48.0
9.6,53.0
9.61,55.0
9.62,62.0
9.63,42.0
9.64,43.0
9.65,50.0
9.66,45.0
9.67,47.0
9.68,48.0
9.69,43.0
9.7,47.0
9.71,47.0
9.72,47.0
9.73,37.0
9.74,51.0
9.75,53.0
9.76,51.0
9.77,57.0
9.78,60.0
9.79,39.0
9.8,43.0
9.81,37.0
9.82,39.0
9.83,43.0
9.84,61.0
9.85,43.0
9.86,57.0
9.87,56.0
9.88,50.0
9.89,44.0
9.9,59.0
9.91,41.0
9.92,53.0
9.93,59.0
9.94,45.0
9.95,50.0
9.96,47.0
9.97,44.0
9.98,59.0
9.99,59.0
10.0,38.0
10.01,53.0
10.02,49.0
10.03,57.0
10.04,48.0
10.05,58.0
10.06,50.0
10.07,40.0
10.08,54.0
10.09,52.0
10.1,47.0
10.11,47.0
10.12,40.0
10.13,48.0
10.14,61.0
10.15,38.0
10.16,50.0
10.17,47.0
10.18,63.0
10.19,60.0
10.2,55.0
10.21,57.0
10.22,41.0
10.23,45.0
10.24,52.0
10.25,49.0
10.26,52.0
10.27,44.0
10.28,56.0
10.29,48.0
10.3,42.0
10.31,60.0
10.32,46.0
10.33,39.0
10.34,45.0
10.35,62.0
10.36,48.0
10.37,71.0
10.38,55.0
10.39,51.0
10.4,38.0
10.41,46.0
10.42,51.0
10.43,55.0
10.44,53.0
10.45,45.0
10.46,42.0
10.47,49.0
10.48,49.0
10.49,46.0
10.5,46.0
10.51,55.0
10.52,47.0
10.53,55.0
10.54,28.0
10.55,48.0
10.56,42.0
10.57,47.0
10.58,59.0
10.59,42.0
10.6,53.0
10.61,40.0
10.62,55.0
10.63,52.0
10.64,60.0
10.65,54.0
10.66,67.0
10.67,59.0
10.68,37.0
10.69,44.0
10.7,57.0
10.71,57.0
10.72,41.0
10.73,54.0
10.74,57.0
10.75,43.0
10.76,48.0
10.77,45.0
10.78,48.0
10.79,44.0
10.8,51.0
10.81,45.0
10.82,44.0
10.83,48.0
10.84,43.0
10.85,45.0
10.86,41.0
10.87,41.0
10.88,46.0
10.89,53.0
10.9,54.0
10.91,48.0
10.92,59.0
10.93,40.0
10.94,53.0
10.95,41.0
10.96,52.0
10.97,56.0
10.98,45.0
10.99,43.0
11.0,49.0
11.01,51.0
11.02,58.0
11.03,40.0
11.04,53.0
11.05,70.0
11.06,47.0
11.07,46.0
11.08,55.0
11.09,54.0
11.1,40.0
11.11,50.0
11.12,55.0
11.13,54.0
11.14,50.0
11.15,43.0
11.16,43.0
11.17,53.0
11.18,38.0
11.19,52.0
11.2,53.0
11.21,52.0
11.22,43.0
11.23,37.0
11.24,54.0
11.25,55.0
11.26,53.0
11.27,51.0
11.28,59.0
11.29,46.0
11.3,56.0
11.31,46.0
11.32,46.0
11.33,43.0
11.34,36.0
11.35,53.0
11.36,51.0
11.37,29.0
11.38,60.0
11.39,49.0
11.4,53.0
11.41,56.0
11.42,41.0
11.43,51.0
11.44,44.0
11.45,48.0
11.46,46.0
11.47,59.0
11.48,57.0
11.49,57.0
11.5,56.0
11.51,49.0
11.52,55.0
11.53,48.0
11.54,48.0
11.55,52.0
11.56,57.0
11.57,59.0
11.58,48.0
11.59,53.0
11.6,50.0
11.61,48.0
11.62,45.0
11.63,56.0
11.64,50.0
11.65,51.0
11.66,49.0
11.67,41.0
11.68,45.0
11.69,56.0
11.7,66.0
11.71,53.0
11.72,53.0
11.73,60.0
11.74,56.0
11.75,42.0
11.76,58.0
11.77,50.0
11.78,52.0
11.79,50.0
11.8,56.0
11.81,47.0
11.82,49.0
11.83,59.0
11.84,54.0
11.85,59.0
11.86,35.0
11.87,53.0
11.88,46.0
11.89,56.0
11.9,58.0
11.91,41.0
11.92,43.0
11.93,50.0
11.94,51.0
11.95,54.0
11.96,54.0
11.97,63.0
11.98,50.0
11.99,47.0
12.0,50.0
12.01,62.0
12.02,53.0
12.03,56.0
12.04,49.0
12.05,58.0
12.06,71.0
12.07,55.0
12.08,56.0
12.09,51.0
12.1,50.0
12.11,67.0
12.12,62.0
12.13,62.0
12.14,64.0
12.15,34.0
12.16,59.0
12.17,61.0
12.18,49.0
12.19,52.0
12.2,59.0
12.21,61.0
12.22,61.0
12.23,58.0
12.24,53.0
12.25,58.0
12.26,65.0
12.27,60.0
12.28,64.0
12.29,56.0
12.3,61.0
12.31,55.0
12.32,68.0
12.33,51.0
12.34,62.0
12.35,64.0
12.36,60.0
12.37,52.0
12.38,55.0
12.39,60.0
12.4,46.0
12.41,72.0
12.42,57.0
12.43,68.0
12.44,72.0
12.45,64.0
12.46,59.0
12.47,92.0
12.48,83.0
12.49,70.0
12.5,89.0
12.51,80.0
12.52,92.0
12.53,140.0
12.54,140.0
12.55,155.0
12.56,201.0
12.57,215.0
12.58,198.0
12.59,214.0
12.6,148.0
12.61,145.0
12.62,125.0
12.63,112.0
12.64,75.0
12.65,83.0
12.66,63.0
12.67,63.0
12.68,72.0
12.69,75.0
12.7,55.0
12.71,58.0
12.72,63.0
12.73,63.0
12.74,52.0
12.75,61.0
12.76,47.0
12.77,50.0
12.78,68.0
12.79,52.0
12.8,58.0
12.81,48.0
12.82,68.0
12.83,62.0
12.84,44.0
12.85,50.0
12.86,43.0
12.87,51.0
12.88,68.0
12.89,56.0
12.9,60.0
12.91,56.0
12.92,50.0
12.93,55.0
12.94,45.0
12.95,46.0
12.96,59.0
12.97,64.0
12.98,54.0
12.99,51.0
13.0,51.0
13.01,60.0
13.02,64.0
13.03,37.0
13.04,57.0
13.05,51.0
13.06,64.0
13.07,63.0
13.08,59.0
13.09,54.0
13.1,59.0
13.11,60.0
13.12,66.0
13.13,56.0
13.14,57.0
13.15,56.0
13.16,53.0
13.17,70.0
13.18,59.0
13.19,55.0
13.2,64.0
13.21,58.0
13.22,45.0
13.23,54.0
13.24,50.0
13.25,60.0
13.26,67.0
13.27,68.0
13.28,63.0
13.29,59.0
13.3,65.0
13.31,66.0
13.32,65.0
13.33,37.0
13.34,66.0
13.35,52.0
13.36,59.0
13.37,45.0
13.38,64.0
13.39,43.0
13.4,60.0
13.41,44.0
13.42,58.0
13.43,52.0
13.44,42.0
13.45,55.0
13.46,49.0
13.47,40.0
13.48,61.0
13.49,56.0
13.5,59.0
13.51,43.0
13.52,59.0
13.53,54.0
13.54,47.0
13.55,56.0
13.56,39.0
13.57,47.0
13.58,55.0
13.59,55.0
13.6,70.0
13.61,53.0
13.62,56.0
13.63,59.0
13.64,50.0
13.65,54.0
13.66,66.0
13.67,65.0
13.68,59.0
13.69,48.0
13.7,52.0
13.71,63.0
13.72,54.0
13.73,46.0
13.74,50.0
13.75,51.0
13.76,59.0
13.77,51.0
13.78,48.0
13.79,52.0
13.8,58.0
13.81,61.0
13.82,65.0
13.83,55.0
13.84,52.0
13.85,20.0
13.86,59.0
13.87,50.0
13.88,56.0
13.89,50.0
13.9,43.0
13.91,45.0
13.92,36.0
13.93,55.0
13.94,59.0
13.95,53.0
13.96,56.0
13.97,50.0
13.98,42.0
13.99,61.0
14.0,56.0
14.01,49.0
14.02,56.0
14.03,47.0
14.04,55.0
14.05,61.0
14.06,68.0
14.07,61.0
14.08,62.0
14.09,66.0
14.1,65.0
14.11,42.0
14.12,68.0
14.13,60.0
14.14,57.0
14.15,54.0
14.16,56.0
14.17,47.0
14.18,40.0
14.19,49.0
14.2,54.0
14.21,37.0
14.22,43.0
14.23,66.0
14.24,56.0
14.25,60.0
14.26,56.0
14.27,55.0
14.28,45.0
14.29,53.0
14.3,44.0
14.31,40.0
14.32,50.0
14.33,41.0
14.34,61.0
14.35,64.0
14.36,52.0
14.37,61.0
14.38,69.0
14.39,57.0
14.4,55.0
14.41,50.0
14.42,54.0
14.43,57.0
14.44,50.0
14.45,41.0
14.46,53.0
14.47,60.0
14.48,48.0
14.49,60.0
14.5,62.0
14.51,50.0
14.52,55.0
14.53,55.0
14.54,50.0
14.55,49.0
14.56,57.0
14.57,51.0
14.58,58.0
14.59,59.0
14.6,50.0
14.61,52.0
14.62,51.0
14.63,53.0
14.64,56.0
14.65,71.0
14.66,55.0
14.67,58.0
14.68,52.0
14.69,50.0
14.7,48.0
14.71,64.0
14.72,50.0
14.73,53.0
14.74,59.0
14.75,51.0
14.76,45.0
14.77,51.0
14.78,56.0
14.79,55.0
14.8,49.0
14.81,48.0
14.82,55.0
14.83,45.0
14.84,36.0
14.85,53.0
14.86,45.0
14.87,52.0
14.88,60.0
14.89,56.0
14.9,47.0
14.91,52.0
14.92,44.0
14.93,43.0
14.94,53.0
14.95,55.0
14.96,49.0
14.97,48.0
14.98,45.0
14.99,48.0
15.0,44.0
15.01,65.0
15.02,63.0
15.03,52.0
15.04,53.0
15.05,35.0
15.06,44.0
15.07,52.0
15.08,45.0
15.09,47.0
15.1,51.0
15.11,45.0
15.12,50.0
15.13,56.0
15.14,50.0
15.15,48.0
15.16,55.0
15.17,50.0
15.18,53.0
15.19,65.0
15.2,60.0
15.21,59.0
15.22,46.0
15.23,56.0
15.24,58.0
15.25,47.0
15.26,56.0
15.27,65.0
15.28,54.0
15.29,52.0
15.3,60.0
15.31,53.0
15.32,54.0
15.33,57.0
15.34,51.0
15.35,55.0
15.36,52.0
15.37,44.0
15.38,62.0
15.39,53.0
15.4,58.0
15.41,40.0
15.42,51.0
15.43,57.0
15.44,44.0
15.45,45.0
15.46,52.0
15.47,58.0
15.48,49.0
15.49,45.0
15.5,62.0
15.51,66.0
15.52,51.0
15.53,43.0
15.54,35.0
15.55,50.0
15.56,54.0
15.57,46.0
15.58,45.0
15.59,41.0
15.6,60.0
15.61,53.0
15.62,42.0
15.63,50.0
15.64,56.0
15.65,36.0
15.66,55.0
15.67,59.0
15.68,68.0
15.69,57.0
15.7,65.0
15.71,66.0
15.72,49.0
15.73,64.0
15.74,49.0
15.75,50.0
15.76,44.0
15.77,55.0
15.78,49.0
15.79,49.0
15.8,48.0
15.81,41.0
15.82,50.0
15.83,54.0
15.84,47.0
15.85,57.0
15.86,39.0
15.87,40.0
15.88,54.0
15.89,48.0
15.9,43.0
15.91,43.0
15.92,41.0
15.93,52.0
15.94,46.0
15.95,52.0
15.96,59.0
15.97,51.0
15.98,48.0
15.99,46.0
16.0,51.0
16.01,47.0
16.02,42.0
16.03,42.0
16.04,48.0
16.05,45.0
16.06,58.0
16.07,62.0
16.08,50.0
16.09,46.0
16.1,47.0
16.11,56.0
16.12,52.0
16.13,58.0
16.14,50.0
16.15,46.0
16.16,49.0
16.17,59.0
16.18,63.0
16.19,53.0
16.2,45.0
16.21,47.0
16.22,51.0
16.23,44.0
16.24,52.0
16.25,40.0
16.26,51.0
16.27,44.0
16.28,54.0
16.29,41.0
16.3,57.0
16.31,47.0
16.32,45.0
16.33,44.0
16.34,54.0
16.35,60.0
16.36,52.0
16.37,57.0
16.38,48.0
16.39,46.0
16.4,53.0
16.41,51.0
16.42,60.0
16.43,59.0
16.44,61.0
16.45,52.0
16.46,45.0
16.47,41.0
16.48,46.0
16.49,44.0
16.5,45.0
16.51,54.0
16.52,58.0
16.53,48.0
16.54,50.0
16.55,48.0
16.56,53.0
16.57,67.0
16.58,54.0
16.59,44.0
16.6,44.0
16.61,46.0
16.62,52.0
16.63,43.0
16.64,41.0
16.65,40.0
16.66,51.0
16.67,49.0
16.68,39.0
16.69,51.0
16.7,49.0
16.71,48.0
16.72,49.0
16.73,48.0
16.74,50.0
16.75,53.0
16.76,47.0
16.77,51.0
16.78,36.0
16.79,49.0
16.8,59.0
16.81,57.0
16.82,55.0
16.83,43.0
16.84,43.0
16.85,42.0
16.86,42.0
16.87,43.0
16.88,57.0
16.89,38.0
16.9,43.0
16.91,45.0
16.92,43.0
16.93,49.0
16.94,43.0
16.95,42.0
16.96,67.0
16.97,54.0
16.98,43.0
16.99,52.0
17.0,42.0
17.01,53.0
17.02,62.0
17.03,55.0
17.04,62.0
17.05,59.0
17.06,42.0
17.07,43.0
17.08,56.0
17.09,48.0
17.1,53.0
17.11,42.0
17.12,50.0
17.13,55.0
17.14,38.0
17.15,46.0
17.16,45.0
17.17,53.0
17.18,46.0
17.19,48.0
17.2,39.0
17.21,44.0
17.22,68.0
17.23,48.0
17.24,52.0
17.25,49.0
17.26,35.0
17.27,64.0
17.28,48.0
17.29,48.0
17.3,43.0
17.31,48.0
17.32,46.0
17.33,55.0
17.34,51.0
17.35,55.0
17.36,61.0
17.37,50.0
17.38,65.0
17.39,59.0
17.4,52.0
17.41,43.0
17.42,45.0
17.43,47.0
17.44,40.0
17.45,47.0
17.46,51.0
17.47,45.0
17.48,43.0
17.49,55.0
17.5,41.0
17.51,39.0
17.52,55.0
17.53,44.0
17.54,49.0
17.55,46.0
17.56,47.0
17.57,59.0
17.58,61.0
17.59,57.0
17.6,44.0
17.61,43.0
17.62,49.0
17.63,51.0
17.64,48.0
17.65,50.0
17.66,48.0
17.67,41.0
17.68,37.0
17.69,50.0
17.7,52.0
17.71,63.0
17.72,46.0
17.73,50.0
17.74,57.0
17.75,45.0
17.76,62.0
17.77,51.0
17.78,42.0
17.79,50.0
17.8,48.0
17.81,57.0
17.82,57.0
17.83,45.0
17.84,59.0
17.85,48.0
17.86,61.0
17.87,59.0
17.88,62.0
17.89,54.0
17.9,57.0
17.91,50.0
17.92,53.0
17.93,56.0
17.94,54.0
17.95,45.0
17.96,61.0
17.97,37.0
17.98,66.0
17.99,49.0
18.0,50.0
18.01,56.0
18.02,47.0
18.03,49.0
18.04,39.0
18.05,55.0
18.06,56.0
18.07,51.0
18.08,56.0
18.09,51.0
18.1,58.0
18.11,41.0
18.12,38.0
18.13,49.0
18.14,49.0
18.15,60.0
18.16,41.0
18.17,44.0
18.18,44.0
18.19,55.0
18.2,54.0
18.21,54.0
18.22,51.0
18.23,47.0
18.24,46.0
18.25,51.0
18.26,46.0
18.27,48.0
18.28,61.0
18.29,53.0
18.3,38.0
18.31,49.0
18.32,47.0
18.33,47.0
18.34,51.0
18.35,55.0
18.36,48.0
18.37,62.0
18.38,56.0
18.39,53.0
18.4,50.0
18.41,40.0
18.42,56.0
18.43,38.0
18.44,49.0
18.45,42.0
18.46,53.0
18.47,48.0
18.48,49.0
18.49,55.0
18.5,58.0
18.51,57.0
18.52,52.0
18.53,56.0
18.54,57.0
18.55,45.0
18.56,52.0
18.57,44.0
18.58,44.0
18.59,40.0
18.6,54.0
18.61,45.0
18.62,50.0
18.63,49.0
18.64,54.0
18.65,44.0
18.66,59.0
18.67,35.0
18.68,52.0
18.69,46.0
18.7,57.0
18.71,56.0
18.72,45.0
18.73,56.0
18.74,52.0
18.75,43.0
18.76,54.0
18.77,65.0
18.78,42.0
18.79,65.0
18.8,60.0
18.81,54.0
18.82,54.0
18.83,61.0
18.84,57.0
18.85,74.0
18.86,100.0
18.87,89.0
18.88,99.0
18.89,74.0
18.9,64.0
18.91,79.0
18.92,89.0
18.93,68.0
18.94,81.0
18.95,59.0
18.96,49.0
18.97,55.0
18.98,47.0
18.99,63.0
19.0,60.0
19.01,94.0
19.02,103.0
19.03,91.0
19.04,134.0
19.05,134.0
19.06,136.0
19.07,102.0
19.08,91.0
19.09,99.0
19.1,78.0
19.11,60.0
19.12,55.0
19.13,57.0
19.14,53.0
19.15,52.0
19.16,56.0
19.17,41.0
19.18,51.0
19.19,47.0
19.2,59.0
19.21,57.0
19.22,51.0
19.23,48.0
19.24,55.0
19.25,69.0
19.26,52.0
19.27,44.0
19.28,51.0
19.29,49.0
19.3,47.0
19.31,56.0
19.32,60.0
19.33,62.0
19.34,68.0
19.35,50.0
19.36,55.0
19.37,47.0
19.38,55.0
19.39,50.0
19.4,52.0
19.41,41.0
19.42,42.0
19.43,44.0
19.44,54.0
19.45,48.0
19.46,53.0
19.47,56.0
19.48,47.0
19.49,62.0
19.5,47.0
19.51,57.0
19.52,46.0
19.53,48.0
19.54,45.0
19.55,47.0
19.56,58.0
19.57,57.0
19.58,56.0
19.59,44.0
19.6,59.0
19.61,48.0
19.62,48.0
19.63,51.0
19.64,58.0
19.65,48.0
19.66,70.0
19.67,43.0
19.68,57.0
19.69,59.0
19.7,52.0
19.71,60.0
19.72,54.0
19.73,32.0
19.74,52.0
19.75,48.0
19.76,43.0
19.77,51.0
19.78,54.0
19.79,58.0
19.8,72.0
19.81,63.0
19.82,39.0
19.83,55.0
19.84,49.0
19.85,50.0
19.86,55.0
19.87,55.0
19.88,42.0
19.89,47.0
19.9,57.0
19.91,44.0
19.92,38.0
19.93,50.0
19.94,46.0
19.95,39.0
19.96,49.0
19.97,60.0
19.98,48.0
19.99,48.0
20.0,43.0
20.01,65.0
20.02,44.0
20.03,56.0
20.04,57.0
20.05,43.0
20.06,50.0
20.07,45.0
20.08,63.0
20.09,37.0
20.1,54.0
20.11,46.0
20.12,46.0
20.13,50.0
20.14,50.0
20.15,48.0
20.16,45.0
20.17,43.0
20.18,43.0
20.19,59.0
20.2,52.0
20.21,48.0
20.22,56.0
20.23,53.0
20.24,51.0
20.25,54.0
20.26,56.0
20.27,56.0
20.28,48.0
20.29,65.0
20.3,45.0
20.31,61.0
20.32,50.0
20.33,46.0
20.34,39.0
20.35,38.0
20.36,54.0
20.37,50.0
20.38,68.0
20.39,52.0
20.4,42.0
20.41,50.0
20.42,62.0
20.43,46.0
20.44,59.0
20.45,40.0
20.46,44.0
20.47,43.0
20.48,60.0
20.49,42.0
20.5,51.0
20.51,38.0
20.52,47.0
20.53,47.0
20.54,62.0
20.55,51.0
20.56,53.0
20.57,56.0
20.58,55.0
20.59,56.0
20.6,46.0
20.61,50.0
20.62,54.0
20.63,60.0
20.64,39.0
20.65,54.0
20.66,50.0
20.67,72.0
20.68,47.0
20.69,52.0
20.7,50.0
20.71,57.0
20.72,53.0
20.73,46.0
20.74,44.0
20.75,56.0
20.76,37.0
20.77,51.0
20.78,39.0
20.79,51.0
20.8,51.0
20.81,55.0
20.82,47.0
20.83,47.0
20.84,43.0
20.85,51.0
20.86,46.0
20.87,55.0
20.88,66.0
20.89,49.0
20.9,62.0
20.91,57.0
20.92,54.0
20.93,42.0
20.94,57.0
20.95,67.0
20.96,60.0
20.97,61.0
20.98,55.0
20.99,50.0
21.0,47.0
21.01,42.0
21.02,46.0
21.03,56.0
21.04,48.0
21.05,54.0
21.06,43.0
21.07,54.0
21.08,43.0
21.09,53.0
21.1,57.0
21.11,55.0
21.12,53.0
21.13,55.0
21.14,49.0
21.15,50.0
21.16,52.0
21.17,50.0
21.18,41.0
21.19,55.0
21.2,40.0
21.21,64.0
21.22,53.0
21.23,44.0
21.24,49.0
21.25,46.0
21.26,55.0
21.27,59.0
21.28,58.0
21.29,57.0
21.3,45.0
21.31,50.0
21.32,48.0
21.33,47.0
21.34,47.0
21.35,54.0
21.36,59.0
21.37,49.0
21.38,51.0
21.39,49.0
21.4,32.0
21.41,39.0
21.42,60.0
21.43,43.0
21.44,56.0
21.45,63.0
21.46,36.0
21.47,59.0
21.48,56.0
21.49,34.0
21.5,50.0
21.51,60.0
21.52,58.0
21.53,41.0
21.54,49.0
21.55,50.0
21.56,54.0
21.57,54.0
21.58,49.0
21.59,47.0
21.6,43.0
21.61,59.0
21.62,49.0
21.63,56.0
21.64,52.0
21.65,48.0
21.66,48.0
21.67,48.0
21.68,51.0
21.69,51.0
21.7,58.0
21.71,51.0
21.72,49.0
21.73,56.0
21.74,54.0
21.75,59.0
21.76,46.0
21.77,47.0
21.78,53.0
21.79,51.0
21.8,61.0
21.81,49.0
21.82,52.0
21.83,51.0
21.84,42.0
21.85,52.0
21.86,51.0
21.87,68.0
21.88,46.0
21.89,48.0
21.9,53.0
21.91,46.0
21.92,47.0
21.93,49.0
21.94,47.0
21.95,56.0
21.96,68.0
21.97,65.0
21.98,49.0
21.99,60.0
22.0,52.0
22.01,56.0
22.02,63.0
22.03,53.0
22.04,55.0
22.05,41.0
22.06,41.0
22.07,51.0
22.08,41.0
22.09,57.0
22.1,57.0
22.11,31.0
22.12,59.0
22.13,43.0
22.14,54.0
22.15,50.0
22.16,53.0
22.17,47.0
22.18,55.0
22.19,58.0
22.2,56.0
22.21,66.0
22.22,51.0
22.23,44.0
22.24,32.0
22.25,62.0
22.26,49.0
22.27,48.0
22.28,53.0
22.29,52.0
22.3,62.0
22.31,56.0
22.32,48.0
22.33,51.0
22.34,49.0
22.35,45.0
22.36,50.0
22.37,58.0
22.38,69.0
22.39,49.0
22.4,48.0
22.41,47.0
22.42,46.0
22.43,49.0
22.44,65.0
22.45,58.0
22.46,56.0
22.47,59.0
22.48,36.0
22.49,39.0
22.5,42.0
22.51,47.0
22.52,54.0
22.53,47.0
22.54,61.0
22.55,54.0
22.56,60.0
22.57,55.0
22.58,46.0
22.59,53.0
22.6,57.0
22.61,59.0
22.62,59.0
22.63,56.0
22.64,47.0
22.65,57.0
22.66,50.0
22.67,38.0
22.68,50.0
22.69,46.0
22.7,43.0
22.71,43.0
22.72,46.0
22.73,49.0
22.74,49.0
22.75,55.0
22.76,48.0
22.77,53.0
22.78,43.0
22.79,53.0
22.8,55.0
22.81,55.0
22.82,57.0
22.83,47.0
22.84,47.0
22.85,38.0
22.86,36.0
22.87,48.0
22.88,48.0
22.89,39.0
22.9,52.0
22.91,53.0
22.92,56.0
22.93,70.0
22.94,47.0
22.95,40.0
22.96,47.0
22.97,45.0
22.98,37.0
22.99,43.0
23.0,46.0
23.01,41.0
23.02,60.0
23.03,61.0
23.04,54.0
23.05,56.0
23.06,51.0
23.07,41.0
23.08,49.0
23.09,53.0
23.1,65.0
23.11,58.0
23.12,52.0
23.13,56.0
23.14,54.0
23.15,51.0
23.16,60.0
23.17,52.0
23.18,43.0
23.19,55.0
23.2,47.0
23.21,56.0
23.22,46.0
23.23,45.0
23.24,60.0
23.25,53.0
23.26,54.0
23.27,45.0
23.28,59.0
23.29,51.0
23.3,53.0
23.31,44.0
23.32,44.0
23.33,56.0
23.34,58.0
23.35,55.0
23.36,43.0
23.37,48.0
23.38,44.0
23.39,48.0
23.4,36.0
23.41,51.0
23.42,41.0
23.43,46.0
23.44,45.0
23.45,44.0
23.46,62.0
23.47,59.0
23.48,49.0
23.49,53.0
23.5,49.0
23.51,54.0
23.52,42.0
23.53,47.0
23.54,64.0
23.55,61.0
23.56,60.0
23.57,47.0
23.58,68.0
23.59,58.0
23.6,60.0
23.61,59.0
23.62,55.0
23.63,52.0
23.64,54.0
23.65,50.0
23.66,49.0
23.67,57.0
23.68,48.0
23.69,48.0
23.7,49.0
23.71,53.0
23.72,57.0
23.73,60.0
23.74,56.0
23.75,53.0
23.76,53.0
23.77,43.0
23.78,62.0
23.79,51.0
23.8,55.0
23.81,49.0
23.82,41.0
23.83,50.0
23.84,55.0
23.85,41.0
23.86,47.0
23.87,47.0
23.88,52.0
23.89,44.0
23.9,65.0
23.91,52.0
23.92,50.0
23.93,53.0
23.94,65.0
23.95,56.0
23.96,53.0
23.97,46.0
23.98,61.0
23.99,65.0
24.0,53.0
24.01,52.0
24.02,51.0
24.03,57.0
24.04,53.0
24.05,51.0
24.06,40.0
24.07,58.0
24.08,55.0
24.09,54.0
24.1,46.0
24.11,49.0
24.12,48.0
24.13,62.0
24.14,54.0
24.15,59.0
24.16,63.0
24.17,54.0
24.18,52.0
24.19,44.0
24.2,52.0
24.21,43.0
24.22,58.0
24.23,51.0
24.24,44.0
24.25,44.0
24.26,49.0
24.27,65.0
24.28,49.0
24.29,54.0
24.3,37.0
24.31,42.0
24.32,47.0
24.33,55.0
24.34,52.0
24.35,65.0
24.36,54.0
24.37,60.0
24.38,53.0
24.39,46.0
24.4,60.0
24.41,41.0
24.42,40.0
24.43,47.0
24.44,48.0
24.45,37.0
24.46,43.0
24.47,59.0
24.48,59.0
24.49,49.0
24.5,44.0
24.51,48.0
24.52,50.0
24.53,45.0
24.54,66.0
24.55,64.0
24.56,45.0
24.57,56.0
24.58,46.0
24.59,56.0
24.6,50.0
24.61,57.0
24.62,47.0
24.63,50.0
24.64,58.0
24.65,51.0
24.66,51.0
24.67,50.0
24.68,59.0
24.69,59.0
24.7,55.0
24.71,56.0
24.72,54.0
24.73,58.0
24.74,32.0
24.75,33.0
24.76,47.0
24.77,52.0
24.78,46.0
24.79,56.0
24.8,50.0
24.81,63.0
24.82,48.0
24.83,71.0
24.84,44.0
24.85,47.0
24.86,57.0
24.87,40.0
24.88,49.0
24.89,40.0
24.9,56.0
24.91,55.0
24.92,52.0
24.93,61.0
24.94,43.0
24.95,47.0
24.96,50.0
24.97,61.0
24.98,59.0
24.99,55.0
25.0,58.0
25.01,62.0
25.02,41.0
25.03,56.0
25.04,52.0
25.05,60.0
25.06,64.0
25.07,57.0
25.08,50.0
25.09,45.0
25.1,61.0
25.11,58.0
25.12,57.0
25.13,49.0
25.14,49.0
25.15,69.0
25.16,66.0
25.17,71.0
25.18,70.0
25.19,62.0
25.2,95.0
25.21,91.0
25.22,93.0
25.23,113.0
25.24,123.0
25.25,105.0
25.26,96.0
25.27,89.0
25.28,86.0
25.29,94.0
25.3,79.0
25.31,78.0
25.32,71.0
25.33,73.0
25.34,72.0
25.35,59.0
25.36,52.0
25.37,50.0
25.38,45.0
25.39,55.0
25.4,58.0
25.41,41.0
25.42,46.0
25.43,52.0
25.44,50.0
25.45,45.0
25.46,69.0
25.47,61.0
25.48,48.0
25.49,53.0
25.5,64.0
25.51,54.0
25.52,40.0
25.53,56.0
25.54,51.0
25.55,63.0
25.56,42.0
25.57,49.0
25.58,52.0
25.59,57.0
25.6,45.0
25.61,53.0
25.62,47.0
25.63,45.0
25.64,62.0
25.65,51.0
25.66,46.0
25.67,57.0
25.68,58.0
25.69,67.0
25.7,68.0
25.71,45.0
25.72,38.0
25.73,49.0
25.74,62.0
25.75,54.0
25.76,53.0
25.77,67.0
25.78,66.0
25.79,57.0
25.8,58.0
25.81,52.0
25.82,46.0
25.83,56.0
25.84,46.0
25.85,61.0
25.86,49.0
25.87,51.0
25.88,56.0
25.89,48.0
25.9,39.0
25.91,54.0
25.92,65.0
25.93,54.0
25.94,54.0
25.95,58.0
25.96,53.0
25.97,63.0
25.98,70.0
25.99,51.0
26.0,57.0
26.01,52.0
26.02,48.0
26.03,56.0
26.04,63.0
26.05,54.0
26.06,56.0
26.07,62.0
26.08,39.0
26.09,47.0
26.1,54.0
26.11,63.0
26.12,64.0
26.13,46.0
26.14,64.0
26.15,51.0
26.16,56.0
26.17,46.0
26.18,49.0
26.19,58.0
26.2,42.0
26.21,56.0
26.22,50.0
26.23,43.0
26.24,55.0
26.25,54.0
26.26,57.0
26.27,46.0
26.28,59.0
26.29,50.0
26.3,57.0
26.31,50.0
26.32,46.0
26.33,45.0
26.34,52.0
26.35,49.0
26.36,36.0
26.37,47.0
26.38,49.0
26.39,57.0
26.4,60.0
26.41,58.0
26.42,59.0
26.43,52.0
26.44,52.0
26.45,52.0
26.46,58.0
26.47,58.0
26.48,44.0
26.49,54.0
26.5,56.0
26.51,57.0
26.52,49.0
26.53,58.0
26.54,54.0
26.55,53.0
26.56,55.0
26.57,59.0
26.58,40.0
26.59,59.0
26.6,58.0
26.61,46.0
26.62,66.0
26.63,46.0
26.64,52.0
26.65,53.0
26.66,52.0
26.67,49.0
26.68,54.0
26.69,41.0
26.7,47.0
26.71,59.0
26.72,46.0
26.73,41.0
26.74,62.0
26.75,57.0
26.76,56.0
26.77,75.0
26.78,44.0
26.79,60.0
26.8,41.0
26.81,51.0
26.82,57.0
26.83,51.0
26.84,53.0
26.85,59.0
26.86,69.0
26.87,75.0
26.88,54.0
26.89,65.0
26.9,64.0
26.91,55.0
26.92,64.0
26.93,56.0
26.94,73.0
26.95,63.0
26.96,53.0
26.97,70.0
26.98,53.0
26.99,57.0
27.0,59.0
27.01,62.0
27.02,67.0
27.03,41.0
27.04,57.0
27.05,47.0
27.06,52.0
27.07,56.0
27.08,53.0
27.09,46.0
27.1,51.0
27.11,46.0
27.12,62.0
27.13,50.0
27.14,36.0
27.15,52.0
27.16,57.0
27.17,54.0
27.18,51.0
27.19,74.0
27.2,49.0
27.21,54.0
27.22,49.0
27.23,46.0
27.24,55.0
27.25,57.0
27.26,43.0
27.27,53.0
27.28,47.0
27.29,35.0
27.3,56.0
27.31,60.0
27.32,61.0
27.33,62.0
27.34,62.0
27.35,44.0
27.36,48.0
27.37,44.0
27.38,46.0
27.39,51.0
27.4,50.0
27.41,55.0
27.42,47.0
27.43,42.0
27.44,39.0
27.45,53.0
27.46,57.0
27.47,59.0
27.48,49.0
27.49,55.0
27.5,61.0
27.51,49.0
27.52,61.0
27.53,48.0
27.54,44.0
27.55,51.0
27.56,57.0
27.57,62.0
27.58,58.0
27.59,51.0
27.6,61.0
27.61,51.0
27.62,46.0
27.63,45.0
27.64,43.0
27.65,57.0
27.66,45.0
27.67,56.0
27.68,55.0
27.69,54.0
27.7,47.0
27.71,48.0
27.72,38.0
27.73,51.0
27.74,55.0
27.75,50.0
27.76,54.0
27.77,56.0
27.78,46.0
27.79,54.0
27.8,57.0
27.81,57.0
27.82,60.0
27.83,65.0
27.84,61.0
27.85,62.0
27.86,57.0
27.87,57.0
27.88,51.0
27.89,50.0
27.9,56.0
27.91,50.0
27.92,53.0
27.93,49.0
27.94,55.0
27.95,52.0
27.96,54.0
27.97,65.0
27.98,54.0
27.99,57.0
28.0,51.0
28.01,53.0
28.02,41.0
28.03,52.0
28.04,50.0
28.05,55.0
28.06,51.0
28.07,50.0
28.08,55.0
28.09,46.0
28.1,52.0
28.11,56.0
28.12,56.0
28.13,51.0
28.14,50.0
28.15,72.0
28.16,61.0
28.17,75.0
28.18,66.0
28.19,72.0
28.2,90.0
28.21,104.0
28.22,87.0
28.23,96.0
28.24,68.0
28.25,64.0
28.26,71.0
28.27,77.0
28.28,51.0
28.29,67.0
28.3,45.0
28.31,46.0
28.32,44.0
28.33,48.0
28.34,53.0
28.35,55.0
28.36,65.0
28.37,49.0
28.38,58.0
28.39,42.0
28.4,65.0
28.41,55.0
28.42,55.0
28.43,55.0
28.44,50.0
28.45,55.0
28.46,55.0
28.47,53.0
28.48,58.0
28.49,42.0
28.5,47.0
28.51,49.0
28.52,61.0
28.53,48.0
28.54,58.0
28.55,49.0
28.56,48.0
28.57,49.0
28.58,56.0
28.59,41.0
28.6,43.0
28.61,51.0
28.62,55.0
28.63,47.0
28.64,47.0
28.65,47.0
28.66,58.0
28.67,65.0
28.68,51.0
28.69,47.0
28.7,52.0
28.71,53.0
28.72,53.0
28.73,46.0
28.74,42.0
28.75,62.0
28.76,49.0
28.77,51.0
28.78,54.0
28.79,45.0
28.8,55.0
28.81,49.0
28.82,40.0
28.83,49.0
28.84,50.0
28.85,56.0
28.86,48.0
28.87,61.0
28.88,61.0
28.89,61.0
28.9,39.0
28.91,56.0
28.92,59.0
28.93,51.0
28.94,62.0
28.95,46.0
28.96,59.0
28.97,61.0
28.98,59.0
28.99,63.0
29.0,58.0
29.01,63.0
29.02,48.0
29.03,58.0
29.04,57.0
29.05,51.0
29.06,57.0
29.07,56.0
29.08,58.0
29.09,58.0
29.1,44.0
29.11,52.0
29.12,55.0
29.13,47.0
29.14,48.0
29.15,43.0
29.16,66.0
29.17,48.0
29.18,47.0
29.19,59.0
29.2,56.0
29.21,46.0
29.22,52.0
29.23,51.0
29.24,61.0
29.25,55.0
29.26,52.0
29.27,45.0
29.28,46.0
29.29,59.0
29.3,48.0
29.31,59.0
29.32,57.0
29.33,44.0
29.34,56.0
29.35,41.0
29.36,36.0
29.37,47.0
29.38,61.0
29.39,41.0
29.4,50.0
29.41,49.0
29.42,44.0
29.43,51.0
29.44,75.0
29.45,44.0
29.46,43.0
29.47,48.0
29.48,47.0
29.49,55.0
29.5,55.0
29.51,44.0
29.52,57.0
29.53,62.0
29.54,54.0
29.55,55.0
29.56,55.0
29.57,51.0
29.58,56.0
29.59,49.0
29.6,63.0
29.61,54.0
29.62,50.0
29.63,60.0
29.64,52.0
29.65,57.0
29.66,59.0
29.67,58.0
29.68,57.0
29.69,44.0
29.7,54.0
29.71,51.0
29.72,59.0
29.73,52.0
29.74,52.0
29.75,39.0
29.76,46.0
29.77,58.0
29.78,51.0
29.79,44.0
29.8,52.0
29.81,53.0
29.82,44.0
29.83,64.0
29.84,48.0
29.85,51.0
29.86,48.0
29.87,38.0
29.88,49.0
29.89,48.0
29.9,48.0
29.91,59.0
29.92,49.0
29.93,51.0
29.94,49.0
29.95,50.0
29.96,56.0
29.97,48.0
29.98,59.0
29.99,57.0
30.0,55.0
30.01,65.0
30.02,54.0
30.03,49.0
30.04,51.0
30.05,57.0
30.06,65.0
30.07,57.0
30.08,50.0
30.09,57.0
30.1,63.0
30.11,63.0
30.12,51.0
30.13,53.0
30.14,52.0
30.15,66.0
30.16,51.0
30.17,56.0
30.18,71.0
30.19,51.0
30.2,61.0
30.21,71.0
30.22,60.0
30.23,61.0
30.24,65.0
30.25,51.0
30.26,57.0
30.27,51.0
30.28,69.0
30.29,51.0
30.3,42.0
30.31,53.0
30.32,47.0
30.33,52.0
30.34,69.0
30.35,68.0
30.36,47.0
30.37,55.0
30.38,61.0
30.39,67.0
30.4,68.0
30.41,69.0
30.42,48.0
30.43,63.0
30.44,61.0
30.45,53.0
30.46,52.0
30.47,54.0
30.48,63.0
30.49,49.0
30.5,53.0
30.51,49.0
30.52,50.0
30.53,55.0
30.54,62.0
30.55,58.0
30.56,50.0
30.57,58.0
30.58,55.0
30.59,64.0
30.6,54.0
30.61,66.0
30.62,58.0
30.63,64.0
30.64,55.0
30.65,54.0
30.66,52.0
30.67,64.0
30.68,69.0
30.69,61.0
30.7,61.0
30.71,49.0
30.72,54.0
30.73,71.0
30.74,50.0
30.75,57.0
30.76,52.0
30.77,54.0
30.78,70.0
30.79,61.0
30.8,59.0
30.81,63.0
30.82,49.0
30.83,60.0
30.84,62.0
30.85,62.0
30.86,62.0
30.87,53.0
30.88,58.0
30.89,48.0
30.9,62.0
30.91,70.0
30.92,64.0
30.93,57.0
30.94,88.0
30.95,64.0
30.96,50.0
30.97,71.0
30.98,79.0
30.99,80.0
31.0,81.0
31.01,83.0
31.02,67.0
31.03,90.0
31.04,96.0
31.05,94.0
31.06,91.0
31.07,89.0
31.08,114.0
31.09,112.0
31.1,109.0
31.11,124.0
31.12,134.0
31.13,136.0
31.14,130.0
31.15,147.0
31.16,160.0
31.17,163.0
31.18,189.0
31.19,196.0
31.2,259.0
31.21,321.0
31.22,402.0
31.23,549.0
31.24,691.0
31.25,958.0
31.26,1292.0
31.27,1835.0
31.28,2083.0
31.29,2089.0
31.3,1782.0
31.31,1278.0
31.32,844.0
31.33,868.0
31.34,913.0
31.35,1084.0
31.36,1102.0
31.37,1114.0
31.38,874.0
31.39,614.0
31.4,424.0
31.41,283.0
31.42,220.0
31.43,207.0
31.44,176.0
31.45,150.0
31.46,132.0
31.47,128.0
31.48,126.0
31.49,122.0
31.5,107.0
31.51,105.0
31.52,115.0
31.53,94.0
31.54,102.0
31.55,99.0
31.56,94.0
31.57,83.0
31.58,76.0
31.59,78.0
31.6,77.0
31.61,72.0
31.62,84.0
31.63,78.0
31.64,80.0
31.65,56.0
31.66,73.0
31.67,83.0
31.68,87.0
31.69,75.0
31.7,71.0
31.71,81.0
31.72,76.0
31.73,57.0
31.74,59.0
31.75,77.0
31.76,72.0
31.77,76.0
31.78,73.0
31.79,58.0
31.8,64.0
31.81,69.0
31.82,78.0
31.83,71.0
31.84,52.0
31.85,60.0
31.86,50.0
31.87,53.0
31.88,55.0
31.89,54.0
31.9,56.0
31.91,58.0
31.92,64.0
31.93,52.0
31.94,64.0
31.95,66.0
31.96,53.0
31.97,74.0
31.98,47.0
31.99,59.0
32.0,48.0
32.01,63.0
32.02,52.0
32.03,48.0
32.04,47.0
32.05,51.0
32.06,47.0
32.07,58.0
32.08,49.0
32.09,66.0
32.1,52.0
32.11,66.0
32.12,48.0
32.13,60.0
32.14,60.0
32.15,54.0
32.16,55.0
32.17,68.0
32.18,47.0
32.19,48.0
32.2,65.0
32.21,40.0
32.22,59.0
32.23,52.0
32.24,56.0
32.25,47.0
32.26,52.0
32.27,44.0
32.28,57.0
32.29,51.0
32.3,58.0
32.31,57.0
32.32,57.0
32.33,48.0
32.34,58.0
32.35,56.0
32.36,59.0
32.37,63.0
32.38,59.0
32.39,49.0
32.4,67.0
32.41,61.0
32.42,60.0
32.43,33.0
32.44,51.0
32.45,69.0
32.46,61.0
32.47,51.0
32.48,57.0
32.49,64.0
32.5,47.0
32.51,64.0
32.52,60.0
32.53,56.0
32.54,60.0
32.55,56.0
32.56,49.0
32.57,55.0
32.58,52.0
32.59,44.0
32.6,47.0
32.61,49.0
32.62,56.0
32.63,50.0
32.64,65.0
32.65,50.0
32.66,66.0
32.67,61.0
32.68,65.0
32.69,52.0
32.7,51.0
32.71,49.0
32.72,58.0
32.73,53.0
32.74,53.0
32.75,49.0
32.76,50.0
32.77,63.0
32.78,46.0
32.79,62.0
32.8,55.0
32.81,56.0
32.82,66.0
32.83,48.0
32.84,62.0
32.85,64.0
32.86,49.0
32.87,48.0
32.88,55.0
32.89,58.0
32.9,64.0
32.91,55.0
32.92,48.0
32.93,48.0
32.94,57.0
32.95,51.0
32.96,63.0
32.97,67.0
32.98,55.0
32.99,64.0
33.0,59.0
33.01,49.0
33.02,65.0
33.03,59.0
33.04,48.0
33.05,48.0
33.06,64.0
33.07,51.0
33.08,63.0
33.09,52.0
33.1,55.0
33.11,54.0
33.12,63.0
33.13,83.0
33.14,59.0
33.15,75.0
33.16,84.0
33.17,102.0
33.18,105.0
33.19,99.0
33.2,114.0
33.21,108.0
33.22,104.0
33.23,81.0
33.24,81.0
33.25,64.0
33.26,70.0
33.27,74.0
33.28,65.0
33.29,53.0
33.3,60.0
33.31,55.0
33.32,49.0
33.33,59.0
33.34,45.0
33.35,71.0
33.36,50.0
33.37,45.0
33.38,71.0
33.39,57.0
33.4,53.0
33.41,45.0
33.42,53.0
33.43,56.0
33.44,52.0
33.45,57.0
33.46,61.0
33.47,52.0
33.48,64.0
33.49,68.0
33.5,49.0
33.51,44.0
33.52,61.0
33.53,47.0
33.54,50.0
33.55,55.0
33.56,59.0
33.57,72.0
33.58,51.0
33.59,46.0
33.6,57.0
33.61,49.0
33.62,60.0
33.63,54.0
33.64,55.0
33.65,57.0
33.66,60.0
33.67,66.0
33.68,65.0
33.69,61.0
33.7,54.0
33.71,66.0
33.72,50.0
33.73,66.0
33.74,57.0
33.75,59.0
33.76,50.0
33.77,49.0
33.78,54.0
33.79,53.0
33.8,58.0
33.81,59.0
33.82,76.0
33.83,59.0
33.84,44.0
33.85,62.0
33.86,50.0
33.87,64.0
33.88,58.0
33.89,55.0
33.9,46.0
33.91,51.0
33.92,48.0
33.93,54.0
33.94,55.0
33.95,53.0
33.96,55.0
33.97,50.0
33.98,51.0
33.99,50.0
34.0,47.0
34.01,46.0
34.02,62.0
34.03,41.0
34.04,60.0
34.05,57.0
34.06,54.0
34.07,59.0
34.08,54.0
34.09,53.0
34.1,42.0
34.11,51.0
34.12,44.0
34.13,58.0
34.14,35.0
34.15,58.0
34.16,49.0
34.17,61.0
34.18,44.0
34.19,51.0
34.2,54.0
34.21,49.0
34.22,58.0
34.23,58.0
34.24,62.0
34.25,62.0
34.26,54.0
34.27,49.0
34.28,62.0
34.29,64.0
34.3,61.0
34.31,60.0
34.32,55.0
34.33,44.0
34.34,65.0
34.35,45.0
34.36,66.0
34.37,55.0
34.38,54.0
34.39,46.0
34.4,55.0
34.41,52.0
34.42,59.0
34.43,53.0
34.44,61.0
34.45,49.0
34.46,53.0
34.47,57.0
34.48,50.0
34.49,60.0
34.5,53.0
34.51,55.0
34.52,53.0
34.53,36.0
34.54,42.0
34.55,58.0
34.56,62.0
34.57,63.0
34.58,44.0
34.59,64.0
34.6,67.0
34.61,46.0
34.62,47.0
34.63,43.0
34.64,72.0
34.65,60.0
34.66,59.0
34.67,49.0
34.68,56.0
34.69,48.0
34.7,52.0
34.71,58.0
34.72,55.0
34.73,71.0
34.74,74.0
34.75,54.0
34.76,59.0
34.77,62.0
34.78,49.0
34.79,67.0
34.8,56.0
34.81,60.0
34.82,60.0
34.83,53.0
34.84,51.0
34.85,39.0
34.86,65.0
34.87,39.0
34.88,56.0
34.89,46.0
34.9,57.0
34.91,54.0
34.92,71.0
34.93,58.0
34.94,65.0
34.95,65.0
34.96,58.0
34.97,63.0
34.98,46.0
34.99,66.0
35.0,56.0
35.01,49.0
35.02,56.0
35.03,50.0
35.04,67.0
35.05,56.0
35.06,46.0
35.07,48.0
35.08,53.0
35.09,60.0
35.1,60.0
35.11,52.0
35.12,63.0
35.13,55.0
35.14,56.0
35.15,56.0
35.16,58.0
35.17,59.0
35.18,49.0
35.19,58.0
35.2,63.0
35.21,64.0
35.22,50.0
35.23,44.0
35.24,65.0
35.25,54.0
35.26,61.0
35.27,70.0
35.28,41.0
35.29,57.0
35.3,49.0
35.31,56.0
35.32,53.0
35.33,57.0
35.34,51.0
35.35,67.0
35.36,60.0
35.37,73.0
35.38,49.0
35.39,70.0
35.4,44.0
35.41,59.0
35.42,52.0
35.43,64.0
35.44,44.0
35.45,41.0
35.46,58.0
35.47,66.0
35.48,51.0
35.49,63.0
35.5,46.0
35.51,58.0
35.52,65.0
35.53,65.0
35.54,67.0
35.55,54.0
35.56,52.0
35.57,59.0
35.58,69.0
35.59,64.0
35.6,56.0
35.61,62.0
35.62,69.0
35.63,50.0
35.64,69.0
35.65,58.0
35.66,62.0
35.67,49.0
35.68,71.0
35.69,46.0
35.7,47.0
35.71,53.0
35.72,61.0
35.73,56.0
35.74,58.0
35.75,58.0
35.76,64.0
35.77,49.0
35.78,64.0
35.79,60.0
35.8,52.0
35.81,54.0
35.82,55.0
35.83,75.0
35.84,55.0
35.85,53.0
35.86,58.0
35.87,62.0
35.88,65.0
35.89,58.0
35.9,47.0
35.91,55.0
35.92,55.0
35.93,84.0
35.94,76.0
35.95,63.0
35.96,51.0
35.97,54.0
35.98,60.0
35.99,73.0
36.0,59.0
36.01,50.0
36.02,59.0
36.03,51.0
36.04,64.0
36.05,65.0
36.06,70.0
36.07,60.0
36.08,57.0
36.09,52.0
36.1,71.0
36.11,64.0
36.12,64.0
36.13,57.0
36.14,85.0
36.15,68.0
36.16,56.0
36.17,73.0
36.18,57.0
36.19,60.0
36.2,70.0
36.21,60.0
36.22,66.0
36.23,63.0
36.24,66.0
36.25,73.0
36.26,63.0
36.27,85.0
36.28,72.0
36.29,59.0
36.3,71.0
36.31,59.0
36.32,74.0
36.33,76.0
36.34,61.0
36.35,78.0
36.36,71.0
36.37,58.0
36.38,93.0
36.39,71.0
36.4,79.0
36.41,64.0
36.42,83.0
36.43,69.0
36.44,58.0
36.45,72.0
36.46,83.0
36.47,73.0
36.48,61.0
36.49,95.0
36.5,82.0
36.51,91.0
36.52,86.0
36.53,93.0
36.54,89.0
36.55,79.0
36.56,70.0
36.57,85.0
36.58,108.0
36.59,102.0
36.6,99.0
36.61,112.0
36.62,121.0
36.63,100.0
36.64,115.0
36.65,148.0
36.66,133.0
36.67,133.0
36.68,151.0
36.69,173.0
36.7,158.0
36.71,149.0
36.72,209.0
36.73,242.0
36.74,252.0
36.75,301.0
36.76,312.0
36.77,437.0
36.78,580.0
36.79,736.0
36.8,916.0
36.81,1225.0
36.82,1611.0
36.83,2262.0
36.84,2706.0
36.85,2769.0
36.86,2433.0
36.87,1855.0
36.88,1376.0
36.89,1087.0
36.9,1028.0
36.91,1018.0
36.92,1233.0
36.93,1425.0
36.94,1531.0
36.95,1466.0
36.96,1119.0
36.97,888.0
36.98,599.0
36.99,423.0
37.0,355.0
37.01,286.0
37.02,275.0
37.03,213.0
37.04,194.0
37.05,194.0
37.06,186.0
37.07,165.0
37.08,174.0
37.09,148.0
37.1,123.0
37.11,123.0
37.12,118.0
37.13,143.0
37.14,114.0
37.15,105.0
37.16,105.0
37.17,100.0
37.18,100.0
37.19,94.0
37.2,91.0
37.21,71.0
37.22,83.0
37.23,72.0
37.24,77.0
37.25,76.0
37.26,65.0
37.27,83.0
37.28,92.0
37.29,84.0
37.3,74.0
37.31,77.0
37.32,47.0
37.33,76.0
37.34,71.0
37.35,53.0
37.36,82.0
37.37,59.0
37.38,70.0
37.39,65.0
37.4,66.0
37.41,77.0
37.42,70.0
37.43,62.0
37.44,68.0
37.45,76.0
37.46,68.0
37.47,59.0
37.48,64.0
37.49,74.0
37.5,64.0
37.51,78.0
37.52,64.0
37.53,65.0
37.54,50.0
37.55,78.0
37.56,63.0
37.57,67.0
37.58,53.0
37.59,64.0
37.6,59.0
37.61,54.0
37.62,58.0
37.63,68.0
37.64,72.0
37.65,60.0
37.66,69.0
37.67,58.0
37.68,71.0
37.69,65.0
37.7,59.0
37.71,61.0
37.72,59.0
37.73,74.0
37.74,68.0
37.75,58.0
37.76,64.0
37.77,57.0
37.78,52.0
37.79,79.0
37.8,66.0
37.81,63.0
37.82,57.0
37.83,56.0
37.84,62.0
37.85,52.0
37.86,59.0
37.87,80.0
37.88,59.0
37.89,66.0
37.9,64.0
37.91,50.0
37.92,71.0
37.93,72.0
37.94,57.0
37.95,62.0
37.96,60.0
37.97,64.0
37.98,62.0
37.99,57.0
38.0,60.0
38.01,48.0
38.02,58.0
38.03,60.0
38.04,63.0
38.05,54.0
38.06,62.0
38.07,52.0
38.08,64.0
38.09,53.0
38.1,64.0
38.11,67.0
38.12,57.0
38.13,60.0
38.14,49.0
38.15,65.0
38.16,58.0
38.17,62.0
38.18,53.0
38.19,50.0
38.2,60.0
38.21,54.0
38.22,54.0
38.23,55.0
38.24,55.0
38.25,77.0
38.26,55.0
38.27,55.0
38.28,57.0
38.29,55.0
38.3,55.0
38.31,55.0
38.32,52.0
38.33,58.0
38.34,53.0
38.35,72.0
38.36,54.0
38.37,56.0
38.38,48.0
38.39,48.0
38.4,59.0
38.41,52.0
38.42,59.0
38.43,48.0
38.44,53.0
38.45,55.0
38.46,65.0
38.47,52.0
38.48,53.0
38.49,62.0
38.5,55.0
38.51,60.0
38.52,56.0
38.53,83.0
38.54,94.0
38.55,109.0
38.56,99.0
38.57,82.0
38.58,65.0
38.59,59.0
38.6,62.0
38.61,60.0
38.62,85.0
38.63,70.0
38.64,79.0
38.65,72.0
38.66,77.0
38.67,90.0
38.68,59.0
38.69,57.0
38.7,50.0
38.71,66.0
38.72,50.0
38.73,55.0
38.74,69.0
38.75,59.0
38.76,50.0
38.77,51.0
38.78,54.0
38.79,50.0
38.8,54.0
38.81,57.0
38.82,51.0
38.83,44.0
38.84,48.0
38.85,55.0
38.86,75.0
38.87,54.0
38.88,54.0
38.89,64.0
38.9,62.0
38.91,64.0
38.92,53.0
38.93,45.0
38.94,53.0
38.95,46.0
38.96,39.0
38.97,50.0
38.98,60.0
38.99,48.0
39.0,50.0
39.01,57.0
39.02,57.0
39.03,54.0
39.04,54.0
39.05,49.0
39.06,45.0
39.07,42.0
39.08,53.0
39.09,52.0
39.1,59.0
39.11,55.0
39.12,51.0
39.13,52.0
39.14,58.0
39.15,40.0
39.16,59.0
39.17,49.0
39.18,46.0
39.19,54.0
39.2,52.0
39.21,52.0
39.22,51.0
39.23,56.0
39.24,56.0
39.25,56.0
39.26,54.0
39.27,55.0
39.28,62.0
39.29,65.0
39.3,50.0
39.31,52.0
39.32,60.0
39.33,50.0
39.34,52.0
39.35,61.0
39.36,65.0
39.37,49.0
39.38,49.0
39.39,67.0
39.4,56.0
39.41,60.0
39.42,45.0
39.43,58.0
39.44,53.0
39.45,65.0
39.46,49.0
39.47,61.0
39.48,55.0
39.49,38.0
39.5,66.0
39.51,43.0
39.52,49.0
39.53,45.0
39.54,76.0
39.55,55.0
39.56,43.0
39.57,55.0
39.58,64.0
39.59,46.0
39.6,57.0
39.61,49.0
39.62,49.0
39.63,63.0
39.64,48.0
39.65,44.0
39.66,50.0
39.67,61.0
39.68,59.0
39.69,50.0
39.7,60.0
39.71,46.0
39.72,61.0
39.73,60.0
39.74,53.0
39.75,54.0
39.76,64.0
39.77,47.0
39.78,48.0
39.79,47.0
39.8,48.0
39.81,55.0
39.82,58.0
39.83,53.0
39.84,58.0
39.85,43.0
39.86,60.0
39.87,66.0
39.88,60.0
39.89,62.0
39.9,62.0
39.91,45.0
39.92,72.0
39.93,69.0
39.94,63.0
39.95,54.0
39.96,66.0
39.97,53.0
39.98,67.0
39.99,51.0
40.0,61.0
40.01,56.0
40.02,68.0
40.03,50.0
40.04,52.0
40.05,53.0
40.06,66.0
40.07,42.0
40.08,61.0
40.09,48.0
40.1,42.0
40.11,53.0
40.12,44.0
40.13,57.0
40.14,65.0
40.15,48.0
40.16,57.0
40.17,53.0
40.18,43.0
40.19,58.0
40.2,55.0
40.21,45.0
40.22,48.0
40.23,57.0
40.24,44.0
40.25,63.0
40.26,51.0
40.27,59.0
40.28,59.0
40.29,64.0
40.3,59.0
40.31,57.0
40.32,72.0
40.33,68.0
40.34,51.0
40.35,57.0
40.36,54.0
40.37,38.0
40.38,47.0
40.39,59.0
40.4,62.0
40.41,50.0
40.42,47.0
40.43,69.0
40.44,51.0
40.45,60.0
40.46,56.0
40.47,68.0
40.48,59.0
40.49,65.0
40.5,49.0
40.51,68.0
40.52,54.0
40.53,64.0
40.54,56.0
40.55,75.0
40.56,46.0
40.57,38.0
40.58,54.0
40.59,49.0
40.6,45.0
40.61,49.0
40.62,50.0
40.63,52.0
40.64,56.0
40.65,54.0
40.66,47.0
40.67,50.0
40.68,71.0
40.69,42.0
40.7,50.0
40.71,39.0
40.72,57.0
40.73,46.0
40.74,56.0
40.75,54.0
40.76,52.0
40.77,51.0
40.78,59.0
40.79,54.0
40.8,57.0
40.81,45.0
40.82,53.0
40.83,45.0
40.84,59.0
40.85,54.0
40.86,63.0
40.87,51.0
40.88,38.0
40.89,61.0
40.9,56.0
40.91,54.0
40.92,65.0
40.93,54.0
40.94,60.0
40.95,49.0
40.96,52.0
40.97,45.0
40.98,57.0
40.99,61.0
41.0,59.0
41.01,53.0
41.02,61.0
41.03,46.0
41.04,49.0
41.05,48.0
41.06,58.0
41.07,59.0
41.08,44.0
41.09,50.0
41.1,47.0
41.11,63.0
41.12,68.0
41.13,77.0
41.14,52.0
41.15,56.0
41.16,51.0
41.17,34.0
41.18,51.0
41.19,51.0
41.2,65.0
41.21,66.0
41.22,58.0
41.23,58.0
41.24,42.0
41.25,55.0
41.26,59.0
41.27,55.0
41.28,57.0
41.29,58.0
41.3,59.0
41.31,57.0
41.32,54.0
41.33,49.0
41.34,53.0
41.35,57.0
41.36,44.0
41.37,67.0
41.38,53.0
41.39,61.0
41.4,42.0
41.41,39.0
41.42,60.0
41.43,48.0
41.44,45.0
41.45,63.0
41.46,36.0
41.47,54.0
41.48,52.0
41.49,48.0
41.5,48.0
41.51,71.0
41.52,58.0
41.53,50.0
41.54,53.0
41.55,53.0
41.56,54.0
41.57,41.0
41.58,43.0
41.59,62.0
41.6,53.0
41.61,62.0
41.62,63.0
41.63,53.0
41.64,46.0
41.65,50.0
41.66,74.0
41.67,50.0
41.68,58.0
41.69,55.0
41.7,59.0
41.71,59.0
41.72,54.0
41.73,45.0
41.74,62.0
41.75,45.0
41.76,64.0
41.77,51.0
41.78,53.0
41.79,52.0
41.8,45.0
41.81,55.0
41.82,53.0
41.83,64.0
41.84,49.0
41.85,48.0
41.86,59.0
41.87,49.0
41.88,32.0
41.89,43.0
41.9,47.0
41.91,59.0
41.92,45.0
41.93,61.0
41.94,54.0
41.95,36.0
41.96,42.0
41.97,51.0
41.98,55.0
41.99,47.0
42.0,49.0
42.01,69.0
42.02,57.0
42.03,44.0
42.04,62.0
42.05,62.0
42.06,48.0
42.07,52.0
42.08,53.0
42.09,63.0
42.1,55.0
42.11,55.0
42.12,37.0
42.13,54.0
42.14,58.0
42.15,49.0
42.16,54.0
42.17,50.0
42.18,50.0
42.19,54.0
42.2,49.0
42.21,51.0
42.22,64.0
42.23,72.0
42.24,60.0
42.25,38.0
42.26,51.0
42.27,60.0
42.28,47.0
42.29,64.0
42.3,46.0
42.31,53.0
42.32,43.0
42.33,54.0
42.34,58.0
42.35,51.0
42.36,49.0
42.37,63.0
42.38,56.0
42.39,56.0
42.4,48.0
42.41,64.0
42.42,55.0
42.43,57.0
42.44,50.0
42.45,61.0
42.46,52.0
42.47,59.0
42.48,54.0
42.49,50.0
42.5,54.0
42.51,58.0
42.52,52.0
42.53,53.0
42.54,59.0
42.55,47.0
42.56,58.0
42.57,57.0
42.58,61.0
42.59,62.0
42.6,54.0
42.61,58.0
42.62,56.0
42.63,49.0
42.64,61.0
42.65,48.0
42.66,42.0
42.67,54.0
42.68,57.0
42.69,59.0
42.7,69.0
42.71,58.0
42.72,44.0
42.73,73.0
42.74,49.0
42.75,52.0
42.76,55.0
42.77,48.0
42.78,67.0
42.79,61.0
42.8,51.0
42.81,58.0
42.82,61.0
42.83,59.0
42.84,49.0
42.85,48.0
42.86,60.0
42.87,61.0
42.88,47.0
42.89,49.0
42.9,60.0
42.91,44.0
42.92,47.0
42.93,61.0
42.94,47.0
42.95,64.0
42.96,59.0
42.97,64.0
42.98,56.0
42.99,50.0
43.0,53.0
43.01,43.0
43.02,53.0
43.03,51.0
43.04,57.0
43.05,57.0
43.06,60.0
43.07,71.0
43.08,46.0
43.09,60.0
43.1,55.0
43.11,55.0
43.12,45.0
43.13,52.0
43.14,55.0
43.15,44.0
43.16,46.0
43.17,58.0
43.18,60.0
43.19,45.0
43.2,46.0
43.21,52.0
43.22,49.0
43.23,57.0
43.24,61.0
43.25,56.0
43.26,69.0
43.27,44.0
43.28,56.0
43.29,71.0
43.3,52.0
43.31,59.0
43.32,64.0
43.33,54.0
43.34,56.0
43.35,53.0
43.36,54.0
43.37,63.0
43.38,46.0
43.39,48.0
43.4,57.0
43.41,51.0
43.42,49.0
43.43,52.0
43.44,42.0
43.45,44.0
43.46,52.0
43.47,67.0
43.48,52.0
43.49,50.0
43.5,49.0
43.51,62.0
43.52,60.0
43.53,59.0
43.54,46.0
43.55,55.0
43.56,53.0
43.57,60.0
43.58,52.0
43.59,62.0
43.6,48.0
43.61,52.0
43.62,80.0
43.63,65.0
43.64,43.0
43.65,44.0
43.66,53.0
43.67,55.0
43.68,58.0
43.69,53.0
43.7,65.0
43.71,49.0
43.72,53.0
43.73,54.0
43.74,60.0
43.75,54.0
43.76,61.0
43.77,49.0
43.78,59.0
43.79,52.0
43.8,50.0
43.81,55.0
43.82,61.0
43.83,60.0
43.84,62.0
43.85,72.0
43.86,46.0
43.87,47.0
43.88,49.0
43.89,60.0
43.9,44.0
43.91,58.0
43.92,64.0
43.93,50.0
43.94,55.0
43.95,60.0
43.96,50.0
43.97,59.0
43.98,70.0
43.99,56.0
44.0,63.0
44.01,69.0
44.02,51.0
44.03,61.0
44.04,69.0
44.05,52.0
44.06,59.0
44.07,55.0
44.08,50.0
44.09,70.0
44.1,55.0
44.11,53.0
44.12,54.0
44.13,57.0
44.14,51.0
44.15,52.0
44.16,59.0
44.17,50.0
44.18,53.0
44.19,71.0
44.2,65.0
44.21,58.0
44.22,53.0
44.23,50.0
44.24,65.0
44.25,54.0
44.26,59.0
44.27,59.0
44.28,55.0
44.29,66.0
44.3,55.0
44.31,53.0
44.32,57.0
44.33,57.0
44.34,50.0
44.35,49.0
44.36,46.0
44.37,67.0
44.38,62.0
44.39,48.0
44.4,66.0
44.41,56.0
44.42,53.0
44.43,55.0
44.44,58.0
44.45,65.0
44.46,52.0
44.47,50.0
44.48,48.0
44.49,48.0
44.5,58.0
44.51,60.0
44.52,50.0
44.53,68.0
44.54,57.0
44.55,58.0
44.56,47.0
44.57,65.0
44.58,72.0
44.59,74.0
44.6,68.0
44.61,69.0
44.62,57.0
44.63,64.0
44.64,74.0
44.65,64.0
44.66,64.0
44.67,66.0
44.68,84.0
44.69,91.0
44.7,77.0
44.71,90.0
44.72,85.0
44.73,101.0
44.74,98.0
44.75,107.0
44.76,158.0
44.77,182.0
44.78,202.0
44.79,211.0
44.8,175.0
44.81,173.0
44.82,126.0
44.83,144.0
44.84,123.0
44.85,91.0
44.86,101.0
44.87,114.0
44.88,127.0
44.89,119.0
44.9,124.0
44.91,137.0
44.92,133.0
44.93,106.0
44.94,108.0
44.95,95.0
44.96,108.0
44.97,77.0
44.98,79.0
44.99,82.0
45.0,73.0
45.01,79.0
45.02,73.0
45.03,71.0
45.04,59.0
45.05,50.0
45.06,66.0
45.07,81.0
45.08,62.0
45.09,59.0
45.1,68.0
45.11,60.0
45.12,53.0
45.13,64.0
45.14,58.0
45.15,61.0
45.16,53.0
45.17,63.0
45.18,63.0
45.19,53.0
45.2,50.0
45.21,54.0
45.22,64.0
45.23,58.0
45.24,48.0
45.25,60.0
45.26,60.0
45.27,61.0
45.28,60.0
45.29,64.0
45.3,63.0
45.31,44.0
45.32,68.0
45.33,68.0
45.34,49.0
45.35,54.0
45.36,63.0
45.37,61.0
45.38,62.0
45.39,53.0
45.4,61.0
45.41,52.0
45.42,57.0
45.43,63.0
45.44,60.0
45.45,56.0
45.46,57.0
45.47,52.0
45.48,60.0
45.49,48.0
45.5,51.0
45.51,62.0
45.52,64.0
45.53,60.0
45.54,50.0
45.55,50.0
45.56,63.0
45.57,55.0
45.58,59.0
45.59,76.0
45.6,65.0
45.61,52.0
45.62,58.0
45.63,50.0
45.64,49.0
45.65,68.0
45.66,53.0
45.67,44.0
45.68,62.0
45.69,53.0
45.7,58.0
45.71,55.0
45.72,50.0
45.73,68.0
45.74,56.0
45.75,57.0
45.76,59.0
45.77,58.0
45.78,59.0
45.79,54.0
45.8,37.0
45.81,62.0
45.82,45.0
45.83,60.0
45.84,47.0
45.85,42.0
45.86,58.0
45.87,57.0
45.88,56.0
45.89,48.0
45.9,51.0
45.91,46.0
45.92,64.0
45.93,71.0
45.94,54.0
45.95,52.0
45.96,52.0
45.97,37.0
45.98,44.0
45.99,49.0
46.0,53.0
46.01,44.0
46.02,57.0
46.03,51.0
46.04,51.0
46.05,53.0
46.06,52.0
46.07,60.0
46.08,57.0
46.09,60.0
46.1,57.0
46.11,52.0
46.12,57.0
46.13,51.0
46.14,42.0
46.15,46.0
46.16,62.0
46.17,40.0
46.18,45.0
46.19,64.0
46.2,44.0
46.21,67.0
46.22,62.0
46.23,48.0
46.24,68.0
46.25,55.0
46.26,57.0
46.27,56.0
46.28,65.0
46.29,51.0
46.3,51.0
46.31,60.0
46.32,65.0
46.33,48.0
46.34,50.0
46.35,54.0
46.36,61.0
46.37,61.0
46.38,44.0
46.39,51.0
46.4,48.0
46.41,42.0
46.42,54.0
46.43,61.0
46.44,64.0
46.45,51.0
46.46,41.0
46.47,64.0
46.48,67.0
46.49,57.0
46.5,54.0
46.51,52.0
46.52,52.0
46.53,48.0
46.54,41.0
46.55,51.0
46.56,45.0
46.57,56.0
46.58,50.0
46.59,63.0
46.6,57.0
46.61,45.0
46.62,49.0
46.63,47.0
46.64,52.0
46.65,53.0
46.66,51.0
46.67,50.0
46.68,57.0
46.69,44.0
46.7,47.0
46.71,47.0
46.72,54.0
46.73,46.0
46.74,60.0
46.75,58.0
46.76,59.0
46.77,64.0
46.78,60.0
46.79,56.0
46.8,69.0
46.81,55.0
46.82,55.0
46.83,46.0
46.84,48.0
46.85,56.0
46.86,47.0
46.87,58.0
46.88,52.0
46.89,54.0
46.9,72.0
46.91,60.0
46.92,52.0
46.93,59.0
46.94,48.0
46.95,60.0
46.96,45.0
46.97,48.0
46.98,62.0
46.99,59.0
47.0,57.0
47.01,59.0
47.02,57.0
47.03,56.0
47.04,59.0
47.05,61.0
47.06,62.0
47.07,55.0
47.08,46.0
47.09,57.0
47.1,47.0
47.11,52.0
47.12,44.0
47.13,54.0
47.14,53.0
47.15,61.0
47.16,55.0
47.17,62.0
47.18,58.0
47.19,68.0
47.2,42.0
47.21,57.0
47.22,69.0
47.23,49.0
47.24,66.0
47.25,60.0
47.26,47.0
47.27,54.0
47.28,49.0
47.29,57.0
47.3,50.0
47.31,54.0
47.32,43.0
47.33,47.0
47.34,46.0
47.35,55.0
47.36,49.0
47.37,61.0
47.38,61.0
47.39,52.0
47.4,51.0
47.41,61.0
47.42,55.0
47.43,53.0
47.44,49.0
47.45,65.0
47.46,50.0
47.47,54.0
47.48,54.0
47.49,52.0
47.5,48.0
47.51,53.0
47.52,46.0
47.53,52.0
47.54,73.0
47.55,52.0
47.56,58.0
47.57,57.0
47.58,55.0
47.59,55.0
47.6,64.0
47.61,56.0
47.62,62.0
47.63,53.0
47.64,44.0
47.65,66.0
47.66,53.0
47.67,57.0
47.68,57.0
47.69,56.0
47.7,68.0
47.71,63.0
47.72,47.0
47.73,59.0
47.74,60.0
47.75,50.0
47.76,55.0
47.77,53.0
47.78,49.0
47.79,44.0
47.8,55.0
47.81,48.0
47.82,57.0
47.83,44.0
47.84,44.0
47.85,51.0
47.86,55.0
47.87,56.0
47.88,67.0
47.89,50.0
47.9,54.0
47.91,63.0
47.92,52.0
47.93,73.0
47.94,52.0
47.95,64.0
47.96,48.0
47.97,51.0
47.98,53.0
47.99,59.0
48.0,64.0
48.01,62.0
48.02,69.0
48.03,58.0
48.04,59.0
48.05,55.0
48.06,51.0
48.07,61.0
48.08,60.0
48.09,58.0
48.1,47.0
48.11,71.0
48.12,68.0
48.13,46.0
48.14,50.0
48.15,53.0
48.16,59.0
48.17,45.0
48.18,55.0
48.19,53.0
48.2,62.0
48.21,55.0
48.22,67.0
48.23,54.0
48.24,55.0
48.25,54.0
48.26,59.0
48.27,53.0
48.28,50.0
48.29,55.0
48.3,51.0
48.31,60.0
48.32,47.0
48.33,62.0
48.34,48.0
48.35,51.0
48.36,50.0
48.37,58.0
48.38,55.0
48.39,51.0
48.4,52.0
48.41,65.0
48.42,64.0
48.43,59.0
48.44,57.0
48.45,52.0
48.46,47.0
48.47,49.0
48.48,64.0
48.49,76.0
48.5,62.0
48.51,57.0
48.52,53.0
48.53,57.0
48.54,51.0
48.55,63.0
48.56,61.0
48.57,61.0
48.58,50.0
48.59,56.0
48.6,58.0
48.61,55.0
48.62,52.0
48.63,49.0
48.64,68.0
48.65,51.0
48.66,68.0
48.67,48.0
48.68,65.0
48.69,52.0
48.7,48.0
48.71,55.0
48.72,47.0
48.73,49.0
48.74,57.0
48.75,68.0
48.76,66.0
48.77,52.0
48.78,52.0
48.79,57.0
48.8,54.0
48.81,60.0
48.82,49.0
48.83,61.0
48.84,59.0
48.85,51.0
48.86,56.0
48.87,66.0
48.88,74.0
48.89,52.0
48.9,61.0
48.91,57.0
48.92,69.0
48.93,62.0
48.94,72.0
48.95,71.0
48.96,91.0
48.97,71.0
48.98,77.0
48.99,97.0
49.0,103.0
49.01,106.0
49.02,131.0
49.03,190.0
49.04,226.0
49.05,212.0
49.06,205.0
49.07,184.0
49.08,148.0
49.09,105.0
49.1,101.0
49.11,96.0
49.12,97.0
49.13,92.0
49.14,109.0
49.15,106.0
49.16,124.0
49.17,147.0
49.18,152.0
49.19,153.0
49.2,115.0
49.21,99.0
49.22,94.0
49.23,92.0
49.24,85.0
49.25,66.0
49.26,63.0
49.27,70.0
49.28,63.0
49.29,54.0
49.3,63.0
49.31,57.0
49.32,47.0
49.33,69.0
49.34,74.0
49.35,63.0
49.36,53.0
49.37,54.0
49.38,58.0
49.39,64.0
49.4,56.0
49.41,62.0
49.42,65.0
49.43,63.0
49.44,60.0
49.45,62.0
49.46,54.0
49.47,44.0
49.48,62.0
49.49,47.0
49.5,66.0
49.51,53.0
49.52,61.0
49.53,55.0
49.54,56.0
49.55,62.0
49.56,53.0
49.57,53.0
49.58,46.0
49.59,47.0
49.6,51.0
49.61,63.0
49.62,55.0
49.63,57.0
49.64,55.0
49.65,53.0
49.66,61.0
49.67,55.0
49.68,57.0
49.69,53.0
49.7,50.0
49.71,53.0
49.72,54.0
49.73,66.0
49.74,53.0
49.75,48.0
49.76,53.0
49.77,72.0
49.78,56.0
49.79,51.0
49.8,54.0
49.81,65.0
49.82,58.0
49.83,68.0
49.84,57.0
49.85,71.0
49.86,51.0
49.87,60.0
49.88,74.0
49.89,84.0
49.9,80.0
49.91,55.0
49.92,41.0
49.93,63.0
49.94,61.0
49.95,59.0
49.96,57.0
49.97,58.0
49.98,55.0
49.99,55.0
50.0,49.0
50.01,53.0
50.02,57.0
50.03,54.0
50.04,66.0
50.05,56.0
50.06,57.0
50.07,58.0
50.08,50.0
50.09,53.0
50.1,42.0
50.11,60.0
50.12,57.0
50.13,62.0
50.14,59.0
50.15,64.0
50.16,51.0
50.17,64.0
50.18,58.0
50.19,48.0
50.2,55.0
50.21,53.0
50.22,37.0
50.23,54.0
50.24,55.0
50.25,65.0
50.26,52.0
50.27,59.0
50.28,53.0
50.29,40.0
50.3,69.0
50.31,63.0
50.32,48.0
50.33,56.0
50.34,40.0
50.35,48.0
50.36,58.0
50.37,52.0
50.38,61.0
50.39,51.0
50.4,52.0
50.41,75.0
50.42,62.0
50.43,47.0
50.44,59.0
50.45,61.0
50.46,52.0
50.47,54.0
50.48,52.0
50.49,49.0
50.5,59.0
50.51,55.0
50.52,59.0
50.53,42.0
50.54,45.0
50.55,56.0
50.56,56.0
50.57,55.0
50.58,50.0
50.59,59.0
50.6,43.0
50.61,58.0
50.62,59.0
50.63,57.0
50.64,56.0
50.65,63.0
50.66,47.0
50.67,56.0
50.68,48.0
50.69,55.0
50.7,46.0
50.71,53.0
50.72,47.0
50.73,52.0
50.74,47.0
50.75,48.0
50.76,58.0
50.77,38.0
50.78,57.0
50.79,52.0
50.8,40.0
50.81,50.0
50.82,77.0
50.83,53.0
50.84,53.0
50.85,65.0
50.86,59.0
50.87,52.0
50.88,63.0
50.89,60.0
50.9,57.0
50.91,54.0
50.92,55.0
50.93,39.0
50.94,60.0
50.95,48.0
50.96,72.0
50.97,53.0
50.98,51.0
50.99,57.0
51.0,52.0
51.01,59.0
51.02,57.0
51.03,45.0
51.04,51.0
51.05,63.0
51.06,44.0
51.07,52.0
51.08,47.0
51.09,46.0
51.1,57.0
51.11,53.0
51.12,48.0
51.13,51.0
51.14,54.0
51.15,56.0
51.16,59.0
51.17,63.0
51.18,52.0
51.19,43.0
51.2,55.0
51.21,63.0
51.22,52.0
51.23,53.0
51.24,49.0
51.25,50.0
51.26,55.0
51.27,38.0
51.28,52.0
51.29,55.0
51.3,53.0
51.31,51.0
51.32,71.0
51.33,47.0
51.34,63.0
51.35,59.0
51.36,46.0
51.37,66.0
51.38,42.0
51.39,49.0
51.4,55.0
51.41,48.0
51.42,63.0
51.43,49.0
51.44,51.0
51.45,61.0
51.46,46.0
51.47,60.0
51.48,56.0
51.49,47.0
51.5,70.0
51.51,57.0
51.52,55.0
51.53,58.0
51.54,50.0
51.55,57.0
51.56,50.0
51.57,60.0
51.58,52.0
51.59,54.0
51.6,57.0
51.61,55.0
51.62,52.0
51.63,39.0
51.64,55.0
51.65,52.0
51.66,34.0
51.67,46.0
51.68,53.0
51.69,52.0
51.7,60.0
51.71,63.0
51.72,61.0
51.73,59.0
51.74,57.0
51.75,53.0
51.76,59.0
51.77,46.0
51.78,49.0
51.79,69.0
51.8,43.0
51.81,56.0
51.82,55.0
51.83,60.0
51.84,51.0
51.85,61.0
51.86,71.0
51.87,61.0
51.88,67.0
51.89,58.0
51.9,51.0
51.91,46.0
51.92,43.0
51.93,51.0
51.94,80.0
51.95,53.0
51.96,57.0
51.97,57.0
51.98,46.0
51.99,55.0
52.0,60.0
52.01,54.0
52.02,55.0
52.03,51.0
52.04,57.0
52.05,63.0
52.06,50.0
52.07,66.0
52.08,61.0
52.09,54.0
52.1,57.0
52.11,46.0
52.12,51.0
52.13,67.0
52.14,46.0
52.15,49.0
52.16,47.0
52.17,54.0
52.18,62.0
52.19,49.0
52.2,72.0
52.21,46.0
52.22,53.0
52.23,42.0
52.24,55.0
52.25,55.0
52.26,57.0
52.27,45.0
52.28,59.0
52.29,48.0
52.3,55.0
52.31,65.0
52.32,54.0
52.33,60.0
52.34,55.0
52.35,50.0
52.36,48.0
52.37,49.0
52.38,57.0
52.39,49.0
52.4,61.0
52.41,53.0
52.42,45.0
52.43,59.0
52.44,50.0
52.45,58.0
52.46,62.0
52.47,55.0
52.48,51.0
52.49,52.0
52.5,65.0
52.51,61.0
52.52,59.0
52.53,52.0
52.54,53.0
52.55,49.0
52.56,49.0
52.57,58.0
52.58,54.0
52.59,68.0
52.6,56.0
52.61,49.0
52.62,46.0
52.63,47.0
52.64,54.0
52.65,63.0
52.66,52.0
52.67,65.0
52.68,46.0
52.69,52.0
52.7,51.0
52.71,53.0
52.72,54.0
52.73,56.0
52.74,52.0
52.75,42.0
52.76,46.0
52.77,64.0
52.78,51.0
52.79,36.0
52.8,59.0
52.81,65.0
52.82,62.0
52.83,64.0
52.84,61.0
52.85,50.0
52.86,48.0
52.87,68.0
52.88,47.0
52.89,52.0
52.9,59.0
52.91,58.0
52.92,66.0
52.93,52.0
52.94,55.0
52.95,51.0
52.96,56.0
52.97,54.0
52.98,42.0
52.99,62.0
53.0,55.0
53.01,47.0
53.02,48.0
53.03,54.0
53.04,60.0
53.05,59.0
53.06,46.0
53.07,68.0
53.08,53.0
53.09,74.0
53.1,64.0
53.11,69.0
53.12,62.0
53.13,68.0
53.14,66.0
53.15,74.0
53.16,73.0
53.17,56.0
53.18,66.0
53.19,55.0
53.2,68.0
53.21,65.0
53.22,48.0
53.23,61.0
53.24,58.0
53.25,53.0
53.26,45.0
53.27,54.0
53.28,52.0
53.29,72.0
53.3,48.0
53.31,62.0
53.32,51.0
53.33,50.0
53.34,57.0
53.35,53.0
53.36,46.0
53.37,60.0
53.38,55.0
53.39,57.0
53.4,50.0
53.41,68.0
53.42,47.0
53.43,51.0
53.44,50.0
53.45,49.0
53.46,55.0
53.47,61.0
53.48,44.0
53.49,56.0
53.5,48.0
53.51,60.0
53.52,50.0
53.53,58.0
53.54,58.0
53.55,49.0
53.56,52.0
53.57,50.0
53.58,54.0
53.59,50.0
53.6,51.0
53.61,68.0
53.62,63.0
53.63,60.0
53.64,55.0
53.65,54.0
53.66,49.0
53.67,36.0
53.68,47.0
53.69,60.0
53.7,58.0
53.71,41.0
53.72,58.0
53.73,43.0
53.74,54.0
53.75,46.0
53.76,54.0
53.77,60.0
53.78,50.0
53.79,61.0
53.8,62.0
53.81,51.0
53.82,45.0
53.83,44.0
53.84,54.0
53.85,45.0
53.86,52.0
53.87,56.0
53.88,46.0
53.89,52.0
53.9,52.0
53.91,45.0
53.92,58.0
53.93,62.0
53.94,51.0
53.95,57.0
53.96,48.0
53.97,57.0
53.98,63.0
53.99,57.0
54.0,55.0
54.01,50.0
54.02,52.0
54.03,50.0
54.04,56.0
54.05,49.0
54.06,51.0
54.07,45.0
54.08,56.0
54.09,51.0
54.1,41.0
54.11,68.0
54.12,76.0
54.13,63.0
54.14,60.0
54.15,42.0
54.16,58.0
54.17,51.0
54.18,62.0
54.19,59.0
54.2,52.0
54.21,52.0
54.22,47.0
54.23,60.0
54.24,57.0
54.25,69.0
54.26,52.0
54.27,57.0
54.28,50.0
54.29,58.0
54.3,52.0
54.31,50.0
54.32,51.0
54.33,47.0
54.34,63.0
54.35,51.0
54.36,51.0
54.37,55.0
54.38,48.0
54.39,53.0
54.4,49.0
54.41,53.0
54.42,52.0
54.43,51.0
54.44,62.0
54.45,66.0
54.46,53.0
54.47,75.0
54.48,47.0
54.49,51.0
54.5,53.0
54.51,50.0
54.52,51.0
54.53,54.0
54.54,52.0
54.55,53.0
54.56,54.0
54.57,52.0
54.58,60.0
54.59,59.0
54.6,63.0
54.61,62.0
54.62,59.0
54.63,67.0
54.64,50.0
54.65,53.0
54.66,62.0
54.67,55.0
54.68,47.0
54.69,58.0
54.7,47.0
54.71,48.0
54.72,61.0
54.73,47.0
54.74,52.0
54.75,63.0
54.76,50.0
54.77,57.0
54.78,54.0
54.79,67.0
54.8,60.0
54.81,58.0
54.82,49.0
54.83,63.0
54.84,65.0
54.85,62.0
54.86,52.0
54.87,56.0
54.88,65.0
54.89,51.0
54.9,60.0
54.91,50.0
54.92,59.0
54.93,55.0
54.94,62.0
54.95,56.0
54.96,60.0
54.97,56.0
54.98,58.0
54.99,50.0
55.0,46.0
55.01,50.0
55.02,66.0
55.03,63.0
55.04,47.0
55.05,46.0
55.06,56.0
55.07,51.0
55.08,61.0
55.09,57.0
55.1,45.0
55.11,56.0
55.12,63.0
55.13,61.0
55.14,50.0
55.15,48.0
55.16,53.0
55.17,40.0
55.18,41.0
55.19,57.0
55.2,48.0
55.21,70.0
55.22,74.0
55.23,55.0
55.24,64.0
55.25,72.0
55.26,66.0
55.27,57.0
55.28,61.0
55.29,74.0
55.3,58.0
55.31,72.0
55.32,87.0
55.33,66.0
55.34,68.0
55.35,71.0
55.36,72.0
55.37,57.0
55.38,75.0
55.39,65.0
55.4,68.0
55.41,62.0
55.42,76.0
55.43,70.0
55.44,73.0
55.45,85.0
55.46,91.0
55.47,90.0
55.48,73.0
55.49,82.0
55.5,81.0
55.51,96.0
55.52,112.0
55.53,128.0
55.54,143.0
55.55,187.0
55.56,222.0
55.57,261.0
55.58,403.0
55.59,542.0
55.6,666.0
55.61,739.0
55.62,740.0
55.63,650.0
55.64,436.0
55.65,293.0
55.66,226.0
55.67,170.0
55.68,164.0
55.69,154.0
55.7,148.0
55.71,177.0
55.72,199.0
55.73,247.0
55.74,279.0
55.75,360.0
55.76,394.0
55.77,390.0
55.78,371.0
55.79,269.0
55.8,196.0
55.81,169.0
55.82,132.0
55.83,133.0
55.84,99.0
55.85,101.0
55.86,81.0
55.87,97.0
55.88,85.0
55.89,83.0
55.9,76.0
55.91,78.0
55.92,77.0
55.93,58.0
55.94,57.0
55.95,65.0
55.96,76.0
55.97,66.0
55.98,68.0
55.99,66.0
56.0,77.0
56.01,60.0
56.02,59.0
56.03,59.0
56.04,66.0
56.05,61.0
56.06,67.0
56.07,68.0
56.08,59.0
56.09,58.0
56.1,66.0
56.11,45.0
56.12,59.0
56.13,64.0
56.14,51.0
56.15,63.0
56.16,52.0
56.17,69.0
56.18,67.0
56.19,62.0
56.2,45.0
56.21,61.0
56.22,63.0
56.23,58.0
56.24,51.0
56.25,50.0
56.26,48.0
56.27,41.0
56.28,52.0
56.29,53.0
56.3,48.0
56.31,55.0
56.32,60.0
56.33,62.0
56.34,57.0
56.35,62.0
56.36,48.0
56.37,57.0
56.38,57.0
56.39,51.0
56.4,64.0
56.41,49.0
56.42,59.0
56.43,51.0
56.44,62.0
56.45,55.0
56.46,49.0
56.47,47.0
56.48,61.0
56.49,53.0
56.5,48.0
56.51,66.0
56.52,61.0
56.53,64.0
56.54,59.0
56.55,52.0
56.56,48.0
56.57,60.0
56.58,58.0
56.59,52.0
56.6,56.0
56.61,64.0
56.62,56.0
56.63,53.0
56.64,58.0
56.65,64.0
56.66,50.0
56.67,50.0
56.68,69.0
56.69,54.0
56.7,54.0
56.71,57.0
56.72,57.0
56.73,52.0
56.74,52.0
56.75,47.0
56.76,51.0
56.77,45.0
56.78,53.0
56.79,53.0
56.8,40.0
56.81,56.0
56.82,57.0
56.83,51.0
56.84,57.0
56.85,53.0
56.86,44.0
56.87,52.0
56.88,55.0
56.89,46.0
56.9,50.0
56.91,53.0
56.92,63.0
56.93,52.0
56.94,60.0
56.95,50.0
56.96,52.0
56.97,53.0
56.98,57.0
56.99,50.0
57.0,51.0
57.01,60.0
57.02,54.0
57.03,59.0
57.04,48.0
57.05,63.0
57.06,52.0
57.07,50.0
57.08,45.0
57.09,61.0
57.1,43.0
57.11,48.0
57.12,50.0
57.13,63.0
57.14,59.0
57.15,61.0
57.16,47.0
57.17,44.0
57.18,62.0
57.19,64.0
57.2,53.0
57.21,62.0
57.22,48.0
57.23,48.0
57.24,67.0
57.25,63.0
57.26,59.0
57.27,49.0
57.28,50.0
57.29,59.0
57.3,53.0
57.31,53.0
57.32,46.0
57.33,56.0
57.34,42.0
57.35,60.0
57.36,60.0
57.37,63.0
57.38,66.0
57.39,47.0
57.4,58.0
57.41,45.0
57.42,63.0
57.43,58.0
57.44,68.0
57.45,61.0
57.46,43.0
57.47,55.0
57.48,48.0
57.49,66.0
57.5,49.0
57.51,58.0
57.52,59.0
57.53,40.0
57.54,49.0
57.55,58.0
57.56,50.0
57.57,68.0
57.58,56.0
57.59,59.0
57.6,63.0
57.61,54.0
57.62,56.0
57.63,66.0
57.64,61.0
57.65,38.0
57.66,66.0
57.67,50.0
57.68,52.0
57.69,46.0
57.7,46.0
57.71,57.0
57.72,65.0
57.73,51.0
57.74,52.0
57.75,49.0
57.76,61.0
57.77,49.0
57.78,59.0
57.79,63.0
57.8,47.0
57.81,48.0
57.82,48.0
57.83,53.0
57.84,53.0
57.85,57.0
57.86,54.0
57.87,56.0
57.88,56.0
57.89,52.0
57.9,49.0
57.91,64.0
57.92,61.0
57.93,54.0
57.94,56.0
57.95,48.0
57.96,64.0
57.97,54.0
57.98,52.0
57.99,51.0
58.0,60.0
58.01,64.0
58.02,51.0
58.03,46.0
58.04,53.0
58.05,65.0
58.06,51.0
58.07,58.0
58.08,51.0
58.09,63.0
58.1,56.0
58.11,57.0
58.12,51.0
58.13,59.0
58.14,57.0
58.15,61.0
58.16,58.0
58.17,60.0
58.18,59.0
58.19,74.0
58.2,68.0
58.21,65.0
58.22,76.0
58.23,75.0
58.24,72.0
58.25,71.0
58.26,67.0
58.27,77.0
58.28,76.0
58.29,61.0
58.3,70.0
58.31,57.0
58.32,44.0
58.33,57.0
58.34,54.0
58.35,53.0
58.36,58.0
58.37,57.0
58.38,69.0
58.39,50.0
58.4,57.0
58.41,57.0
58.42,64.0
58.43,45.0
58.44,61.0
58.45,43.0
58.46,52.0
58.47,67.0
58.48,67.0
58.49,58.0
58.5,58.0
58.51,53.0
58.52,57.0
58.53,61.0
58.54,57.0
58.55,48.0
58.56,56.0
58.57,49.0
58.58,55.0
58.59,65.0
58.6,52.0
58.61,67.0
58.62,69.0
58.63,54.0
58.64,64.0
58.65,57.0
58.66,82.0
58.67,67.0
58.68,50.0
58.69,59.0
58.7,62.0
58.71,64.0
58.72,54.0
58.73,66.0
58.74,58.0
58.75,68.0
58.76,57.0
58.77,62.0
58.78,70.0
58.79,83.0
58.8,60.0
58.81,64.0
58.82,72.0
58.83,66.0
58.84,77.0
58.85,71.0
58.86,82.0
58.87,54.0
58.88,73.0
58.89,61.0
58.9,52.0
58.91,65.0
58.92,53.0
58.93,58.0
58.94,79.0
58.95,59.0
58.96,69.0
58.97,72.0
58.98,83.0
58.99,71.0
59.0,79.0
59.01,90.0
59.02,65.0
59.03,77.0
59.04,80.0
59.05,79.0
59.06,79.0
59.07,83.0
59.08,94.0
59.09,105.0
59.1,81.0
59.11,100.0
59.12,106.0
59.13,97.0
59.14,99.0
59.15,99.0
59.16,131.0
59.17,129.0
59.18,134.0
59.19,148.0
59.2,175.0
59.21,213.0
59.22,228.0
59.23,261.0
59.24,307.0
59.25,375.0
59.26,525.0
59.27,633.0
59.28,761.0
59.29,884.0
59.3,897.0
59.31,861.0
59.32,759.0
59.33,624.0
59.34,488.0
59.35,404.0
59.36,328.0
59.37,282.0
59.38,295.0
59.39,261.0
59.4,230.0
59.41,282.0
59.42,356.0
59.43,353.0
59.44,432.0
59.45,451.0
59.46,516.0
59.47,503.0
59.48,423.0
59.49,384.0
59.5,293.0
59.51,277.0
59.52,204.0
59.53,192.0
59.54,182.0
59.55,140.0
59.56,125.0
59.57,131.0
59.58,118.0
59.59,108.0
59.6,120.0
59.61,92.0
59.62,93.0
59.63,78.0
59.64,73.0
59.65,62.0
59.66,85.0
59.67,75.0
59.68,76.0
59.69,87.0
59.7,64.0
59.71,71.0
59.72,77.0
59.73,68.0
59.74,79.0
59.75,68.0
59.76,73.0
59.77,68.0
59.78,65.0
59.79,53.0
59.8,66.0
59.81,83.0
59.82,51.0
59.83,77.0
59.84,51.0
59.85,69.0
59.86,68.0
59.87,70.0
59.88,68.0
59.89,60.0
59.9,65.0
59.91,72.0
59.92,58.0
59.93,60.0
59.94,69.0
59.95,67.0
59.96,61.0
59.97,68.0
59.98,66.0
59.99,65.0
60.0,68.0
60.01,56.0
60.02,72.0
60.03,58.0
60.04,53.0
60.05,62.0
60.06,47.0
60.07,56.0
60.08,54.0
60.09,58.0
60.1,57.0
60.11,65.0
60.12,65.0
60.13,48.0
60.14,73.0
60.15,67.0
60.16,49.0
60.17,68.0
60.18,58.0
60.19,66.0
60.2,44.0
60.21,61.0
60.22,64.0
60.23,61.0
60.24,54.0
60.25,55.0
60.26,50.0
60.27,49.0
60.28,66.0
60.29,55.0
60.3,59.0
60.31,64.0
60.32,45.0
60.33,63.0
60.34,68.0
60.35,62.0
60.36,54.0
60.37,50.0
60.38,56.0
60.39,63.0
60.4,64.0
60.41,72.0
60.42,52.0
60.43,52.0
60.44,60.0
60.45,47.0
60.46,60.0
60.47,54.0
60.48,58.0
60.49,57.0
60.5,55.0
60.51,76.0
60.52,51.0
60.53,59.0
60.54,59.0
60.55,56.0
60.56,50.0
60.57,50.0
60.58,62.0
60.59,52.0
60.6,64.0
60.61,54.0
60.62,54.0
60.63,49.0
60.64,51.0
60.65,56.0
60.66,54.0
60.67,66.0
60.68,78.0
60.69,58.0
60.7,46.0
60.71,47.0
60.72,64.0
60.73,40.0
60.74,44.0
60.75,45.0
60.76,47.0
60.77,62.0
60.78,58.0
60.79,72.0
60.8,56.0
60.81,69.0
60.82,62.0
60.83,48.0
60.84,57.0
60.85,65.0
60.86,44.0
60.87,51.0
60.88,44.0
60.89,46.0
60.9,59.0
60.91,63.0
60.92,56.0
60.93,49.0
60.94,52.0
60.95,73.0
60.96,59.0
60.97,60.0
60.98,65.0
60.99,55.0
61.0,61.0
61.01,51.0
61.02,59.0
61.03,55.0
61.04,76.0
61.05,53.0
61.06,62.0
61.07,62.0
61.08,55.0
61.09,59.0
61.1,69.0
61.11,48.0
61.12,50.0
61.13,51.0
61.14,44.0
61.15,48.0
61.16,54.0
61.17,65.0
61.18,65.0
61.19,47.0
61.2,66.0
61.21,59.0
61.22,55.0
61.23,55.0
61.24,54.0
61.25,66.0
61.26,61.0
61.27,64.0
61.28,56.0
61.29,58.0
61.3,55.0
61.31,51.0
61.32,50.0
61.33,50.0
61.34,55.0
61.35,58.0
61.36,59.0
61.37,60.0
61.38,63.0
61.39,58.0
61.4,53.0
61.41,63.0
61.42,55.0
61.43,46.0
61.44,61.0
61.45,63.0
61.46,56.0
61.47,57.0
61.48,44.0
61.49,68.0
61.5,58.0
61.51,63.0
61.52,50.0
61.53,68.0
61.54,59.0
61.55,53.0
61.56,64.0
61.57,63.0
61.58,59.0
61.59,68.0
61.6,50.0
61.61,57.0
61.62,48.0
61.63,48.0
61.64,49.0
61.65,53.0
61.66,49.0
61.67,56.0
61.68,47.0
61.69,40.0
61.7,62.0
61.71,58.0
61.72,48.0
61.73,57.0
61.74,45.0
61.75,68.0
61.76,53.0
61.77,69.0
61.78,54.0
61.79,57.0
61.8,56.0
61.81,45.0
61.82,57.0
61.83,57.0
61.84,44.0
61.85,53.0
61.86,47.0
61.87,47.0
61.88,48.0
61.89,63.0
61.9,50.0
61.91,45.0
61.92,61.0
61.93,49.0
61.94,60.0
61.95,49.0
61.96,68.0
61.97,65.0
61.98,57.0
61.99,38.0
62.0,59.0
62.01,55.0
62.02,49.0
62.03,64.0
62.04,64.0
62.05,53.0
62.06,56.0
62.07,61.0
62.08,58.0
62.09,48.0
62.1,57.0
62.11,52.0
62.12,56.0
62.13,46.0
62.14,46.0
62.15,57.0
62.16,58.0
62.17,60.0
62.18,49.0
62.19,46.0
62.2,58.0
62.21,51.0
62.22,54.0
62.23,41.0
62.24,63.0
62.25,57.0
62.26,45.0
62.27,68.0
62.28,59.0
62.29,54.0
62.3,46.0
62.31,58.0
62.32,63.0
62.33,62.0
62.34,50.0
62.35,48.0
62.36,45.0
62.37,58.0
62.38,52.0
62.39,40.0
62.4,59.0
62.41,69.0
62.42,41.0
62.43,49.0
62.44,58.0
62.45,55.0
62.46,60.0
62.47,48.0
62.48,59.0
62.49,55.0
62.5,67.0
62.51,53.0
62.52,52.0
62.53,41.0
62.54,62.0
62.55,42.0
62.56,65.0
62.57,49.0
62.58,53.0
62.59,58.0
62.6,40.0
62.61,47.0
62.62,52.0
62.63,52.0
62.64,62.0
62.65,48.0
62.66,61.0
62.67,48.0
62.68,60.0
62.69,61.0
62.7,67.0
62.71,50.0
62.72,60.0
62.73,66.0
62.74,59.0
62.75,52.0
62.76,57.0
62.77,56.0
62.78,66.0
62.79,66.0
62.8,61.0
62.81,64.0
62.82,47.0
62.83,46.0
62.84,62.0
62.85,59.0
62.86,59.0
62.87,70.0
62.88,54.0
62.89,55.0
62.9,52.0
62.91,48.0
62.92,76.0
62.93,60.0
62.94,58.0
62.95,52.0
62.96,65.0
62.97,64.0
62.98,57.0
62.99,75.0
63.0,66.0
63.01,49.0
63.02,41.0
63.03,58.0
63.04,65.0
63.05,58.0
63.06,43.0
63.07,56.0
63.08,51.0
63.09,68.0
63.1,56.0
63.11,48.0
63.12,46.0
63.13,56.0
63.14,67.0
63.15,49.0
63.16,61.0
63.17,60.0
63.18,62.0
63.19,52.0
63.2,58.0
63.21,62.0
63.22,63.0
63.23,52.0
63.24,74.0
63.25,46.0
63.26,63.0
63.27,48.0
63.28,49.0
63.29,55.0
63.3,55.0
63.31,50.0
63.32,56.0
63.33,51.0
63.34,63.0
63.35,53.0
63.36,58.0
63.37,59.0
63.38,57.0
63.39,57.0
63.4,60.0
63.41,54.0
63.42,49.0
63.43,47.0
63.44,65.0
63.45,61.0
63.46,44.0
63.47,45.0
63.48,64.0
63.49,57.0
63.5,48.0
63.51,50.0
63.52,67.0
63.53,48.0
63.54,57.0
63.55,58.0
63.56,65.0
63.57,42.0
63.58,65.0
63.59,48.0
63.6,54.0
63.61,59.0
63.62,52.0
63.63,35.0
63.64,54.0
63.65,56.0
63.66,69.0
63.67,53.0
63.68,55.0
63.69,66.0
63.7,61.0
63.71,47.0
63.72,49.0
63.73,62.0
63.74,53.0
63.75,45.0
63.76,69.0
63.77,50.0
63.78,60.0
63.79,55.0
63.8,67.0
63.81,48.0
63.82,62.0
63.83,42.0
63.84,50.0
63.85,55.0
63.86,74.0
63.87,57.0
63.88,62.0
63.89,58.0
63.9,57.0
63.91,52.0
63.92,58.0
63.93,66.0
63.94,55.0
63.95,57.0
63.96,59.0
63.97,50.0
63.98,45.0
63.99,61.0
64.0,51.0
64.01,41.0
64.02,62.0
64.03,68.0
64.04,44.0
64.05,57.0
64.06,59.0
64.07,50.0
64.08,67.0
64.09,52.0
64.1,68.0
64.11,58.0
64.12,66.0
64.13,55.0
64.14,59.0
64.15,58.0
64.16,63.0
64.17,45.0
64.18,57.0
64.19,51.0
64.2,70.0
64.21,57.0
64.22,53.0
64.23,55.0
64.24,66.0
64.25,67.0
64.26,56.0
64.27,45.0
64.28,59.0
64.29,65.0
64.3,46.0
64.31,56.0
64.32,52.0
64.33,53.0
64.34,57.0
64.35,52.0
64.36,57.0
64.37,64.0
64.38,66.0
64.39,54.0
64.4,45.0
64.41,51.0
64.42,59.0
64.43,69.0
64.44,57.0
64.45,75.0
64.46,51.0
64.47,53.0
64.48,62.0
64.49,45.0
64.5,66.0
64.51,55.0
64.52,61.0
64.53,69.0
64.54,70.0
64.55,62.0
64.56,52.0
64.57,64.0
64.58,56.0
64.59,58.0
64.6,54.0
64.61,57.0
64.62,63.0
64.63,68.0
64.64,70.0
64.65,58.0
64.66,61.0
64.67,66.0
64.68,76.0
64.69,66.0
64.7,69.0
64.71,63.0
64.72,66.0
64.73,62.0
64.74,73.0
64.75,69.0
64.76,78.0
64.77,90.0
64.78,72.0
64.79,72.0
64.8,59.0
64.81,80.0
64.82,71.0
64.83,77.0
64.84,87.0
64.85,85.0
64.86,86.0
64.87,79.0
64.88,100.0
64.89,83.0
64.9,86.0
64.91,91.0
64.92,69.0
64.93,96.0
64.94,80.0
64.95,101.0
64.96,90.0
64.97,109.0
64.98,99.0
64.99,106.0
65.0,122.0
65.01,128.0
65.02,138.0
65.03,118.0
65.04,140.0
65.05,137.0
65.06,138.0
65.07,181.0
65.08,207.0
65.09,234.0
65.1,285.0
65.11,338.0
65.12,390.0
65.13,598.0
65.14,729.0
65.15,921.0
65.16,1220.0
65.17,1373.0
65.18,1478.0
65.19,1286.0
65.2,943.0
65.21,657.0
65.22,469.0
65.23,379.0
65.24,299.0
65.25,275.0
65.26,210.0
65.27,247.0
65.28,276.0
65.29,246.0
65.3,275.0
65.31,356.0
65.32,432.0
65.33,519.0
65.34,637.0
65.35,721.0
65.36,736.0
65.37,624.0
65.38,521.0
65.39,418.0
65.4,324.0
65.41,225.0
65.42,199.0
65.43,145.0
65.44,139.0
65.45,123.0
65.46,101.0
65.47,108.0
65.48,93.0
65.49,108.0
65.5,98.0
65.51,112.0
65.52,103.0
65.53,70.0
65.54,92.0
65.55,59.0
65.56,74.0
65.57,83.0
65.58,76.0
65.59,68.0
65.6,68.0
65.61,76.0
65.62,67.0
65.63,70.0
65.64,70.0
65.65,71.0
65.66,64.0
65.67,74.0
65.68,78.0
65.69,71.0
65.7,69.0
65.71,71.0
65.72,74.0
65.73,73.0
65.74,76.0
65.75,61.0
65.76,70.0
65.77,67.0
65.78,85.0
65.79,63.0
65.8,57.0
65.81,57.0
65.82,59.0
65.83,68.0
65.84,77.0
65.85,60.0
65.86,52.0
65.87,61.0
65.88,59.0
65.89,55.0
65.9,60.0
65.91,69.0
65.92,82.0
65.93,67.0
65.94,62.0
65.95,69.0
65.96,67.0
65.97,67.0
65.98,53.0
65.99,48.0
66.0,73.0
66.01,80.0
66.02,71.0
66.03,67.0
66.04,68.0
66.05,63.0
66.06,56.0
66.07,58.0
66.08,59.0
66.09,44.0
66.1,51.0
66.11,60.0
66.12,61.0
66.13,60.0
66.14,58.0
66.15,56.0
66.16,63.0
66.17,66.0
66.18,49.0
66.19,60.0
66.2,56.0
66.21,62.0
66.22,68.0
66.23,63.0
66.24,48.0
66.25,53.0
66.26,58.0
66.27,64.0
66.28,52.0
66.29,62.0
66.3,56.0
66.31,55.0
66.32,63.0
66.33,61.0
66.34,50.0
66.35,56.0
66.36,52.0
66.37,51.0
66.38,52.0
66.39,66.0
66.4,68.0
66.41,67.0
66.42,55.0
66.43,62.0
66.44,63.0
66.45,65.0
66.46,48.0
66.47,62.0
66.48,60.0
66.49,48.0
66.5,56.0
66.51,60.0
66.52,59.0
66.53,65.0
66.54,54.0
66.55,55.0
66.56,50.0
66.57,59.0
66.58,55.0
66.59,50.0
66.6,74.0
66.61,50.0
66.62,60.0
66.63,57.0
66.64,59.0
66.65,57.0
66.66,48.0
66.67,51.0
66.68,42.0
66.69,54.0
66.7,54.0
66.71,55.0
66.72,62.0
66.73,57.0
66.74,61.0
66.75,48.0
66.76,65.0
66.77,62.0
66.78,70.0
66.79,45.0
66.8,51.0
66.81,58.0
66.82,55.0
66.83,67.0
66.84,55.0
66.85,58.0
66.86,54.0
66.87,60.0
66.88,50.0
66.89,62.0
66.9,48.0
66.91,67.0
66.92,50.0
66.93,68.0
66.94,52.0
66.95,60.0
66.96,64.0
66.97,40.0
66.98,55.0
66.99,47.0
67.0,61.0
67.01,44.0
67.02,48.0
67.03,41.0
67.04,58.0
67.05,51.0
67.06,43.0
67.07,59.0
67.08,61.0
67.09,63.0
67.1,63.0
67.11,62.0
67.12,54.0
67.13,65.0
67.14,43.0
67.15,72.0
67.16,57.0
67.17,54.0
67.18,66.0
67.19,56.0
67.2,50.0
67.21,68.0
67.22,60.0
67.23,75.0
67.24,63.0
67.25,45.0
67.26,53.0
67.27,51.0
67.28,49.0
67.29,54.0
67.3,60.0
67.31,47.0
67.32,51.0
67.33,61.0
67.34,59.0
67.35,60.0
67.36,62.0
67.37,55.0
67.38,51.0
67.39,45.0
67.4,47.0
67.41,57.0
67.42,44.0
67.43,49.0
67.44,56.0
67.45,53.0
67.46,56.0
67.47,51.0
67.48,46.0
67.49,74.0
67.5,55.0
67.51,54.0
67.52,46.0
67.53,54.0
67.54,49.0
67.55,56.0
67.56,48.0
67.57,52.0
67.58,45.0
67.59,60.0
67.6,52.0
67.61,49.0
67.62,58.0
67.63,42.0
67.64,56.0
67.65,39.0
67.66,48.0
67.67,41.0
67.68,68.0
67.69,46.0
67.7,52.0
67.71,53.0
67.72,54.0
67.73,70.0
67.74,55.0
67.75,64.0
67.76,69.0
67.77,52.0
67.78,62.0
67.79,54.0
67.8,46.0
67.81,66.0
67.82,49.0
67.83,60.0
67.84,51.0
67.85,58.0
67.86,56.0
67.87,56.0
67.88,59.0
67.89,55.0
67.9,52.0
67.91,49.0
67.92,53.0
67.93,58.0
67.94,50.0
67.95,65.0
67.96,48.0
67.97,63.0
67.98,68.0
67.99,59.0
68.0,58.0
68.01,57.0
68.02,47.0
68.03,55.0
68.04,59.0
68.05,60.0
68.06,59.0
68.07,56.0
68.08,60.0
68.09,59.0
68.1,54.0
68.11,42.0
68.12,53.0
68.13,63.0
68.14,56.0
68.15,49.0
68.16,62.0
68.17,60.0
68.18,55.0
68.19,56.0
68.2,55.0
68.21,56.0
68.22,47.0
68.23,49.0
68.24,43.0
68.25,53.0
68.26,59.0
68.27,47.0
68.28,55.0
68.29,58.0
68.3,68.0
68.31,56.0
68.32,62.0
68.33,44.0
68.34,52.0
68.35,61.0
68.36,39.0
68.37,58.0
68.38,60.0
68.39,55.0
68.4,48.0
68.41,61.0
68.42,59.0
68.43,51.0
68.44,46.0
68.45,47.0
68.46,53.0
68.47,60.0
68.48,57.0
68.49,76.0
68.5,61.0
68.51,72.0
68.52,67.0
68.53,84.0
68.54,65.0
68.55,80.0
68.56,50.0
68.57,52.0
68.58,51.0
68.59,48.0
68.6,63.0
68.61,56.0
68.62,69.0
68.63,68.0
68.64,64.0
68.65,46.0
68.66,79.0
68.67,64.0
68.68,52.0
68.69,51.0
68.7,60.0
68.71,64.0
68.72,59.0
68.73,64.0
68.74,69.0
68.75,60.0
68.76,66.0
68.77,64.0
68.78,72.0
68.79,53.0
68.8,58.0
68.81,52.0
68.82,54.0
68.83,58.0
68.84,47.0
68.85,52.0
68.86,77.0
68.87,68.0
68.88,58.0
68.89,65.0
68.9,57.0
68.91,68.0
68.92,66.0
68.93,52.0
68.94,58.0
68.95,43.0
68.96,58.0
68.97,48.0
68.98,49.0
68.99,52.0
69.0,54.0
69.01,66.0
69.02,52.0
69.03,66.0
69.04,57.0
69.05,58.0
69.06,54.0
69.07,56.0
69.08,79.0
69.09,60.0
69.1,55.0
69.11,58.0
69.12,57.0
69.13,47.0
69.14,53.0
69.15,58.0
69.16,55.0
69.17,57.0
69.18,51.0
69.19,52.0
69.2,55.0
69.21,43.0
69.22,53.0
69.23,66.0
69.24,62.0
69.25,50.0
69.26,46.0
69.27,53.0
69.28,63.0
69.29,41.0
69.3,55.0
69.31,52.0
69.32,45.0
69.33,66.0
69.34,60.0
69.35,59.0
69.36,50.0
69.37,56.0
69.38,51.0
69.39,75.0
69.4,63.0
69.41,53.0
69.42,49.0
69.43,47.0
69.44,63.0
69.45,60.0
69.46,51.0
69.47,64.0
69.48,62.0
69.49,46.0
69.5,51.0
69.51,57.0
69.52,42.0
69.53,41.0
69.54,52.0
69.55,61.0
69.56,55.0
69.57,49.0
69.58,50.0
69.59,58.0
69.6,60.0
69.61,53.0
69.62,55.0
69.63,60.0
69.64,48.0
69.65,49.0
69.66,52.0
69.67,56.0
69.68,44.0
69.69,66.0
69.7,54.0
69.71,52.0
69.72,61.0
69.73,61.0
69.74,54.0
69.75,42.0
69.76,64.0
69.77,54.0
69.78,61.0
69.79,46.0
69.8,57.0
69.81,43.0
69.82,74.0
69.83,50.0
69.84,49.0
69.85,43.0
69.86,62.0
69.87,64.0
69.88,47.0
69.89,58.0
69.9,52.0
69.91,44.0
69.92,61.0
69.93,56.0
69.94,51.0
69.95,61.0
69.96,59.0
69.97,50.0
69.98,47.0
69.99,61.0
70.0,47.0
70.01,51.0
70.02,43.0
70.03,51.0
70.04,61.0
70.05,47.0
70.06,44.0
70.07,71.0
70.08,48.0
70.09,54.0
70.1,53.0
70.11,57.0
70.12,59.0
70.13,57.0
70.14,58.0
70.15,41.0
70.16,37.0
70.17,57.0
70.18,50.0
70.19,53.0
70.2,69.0
70.21,61.0
70.22,54.0
70.23,43.0
70.24,56.0
70.25,56.0
70.26,43.0
70.27,34.0
70.28,72.0
70.29,50.0
70.3,52.0
70.31,46.0
70.32,71.0
70.33,60.0
70.34,51.0
70.35,61.0
70.36,55.0
70.37,69.0
70.38,66.0
70.39,58.0
70.4,51.0
70.41,59.0
70.42,56.0
70.43,45.0
70.44,53.0
70.45,39.0
70.46,55.0
70.47,44.0
70.48,43.0
70.49,50.0
70.5,46.0
70.51,57.0
70.52,50.0
70.53,76.0
70.54,72.0
70.55,42.0
70.56,47.0
70.57,53.0
70.58,66.0
70.59,52.0
70.6,49.0
70.61,59.0
70.62,55.0
70.63,62.0
70.64,41.0
70.65,45.0
70.66,69.0
70.67,48.0
70.68,58.0
70.69,53.0
70.7,56.0
70.71,49.0
70.72,52.0
70.73,55.0
70.74,65.0
70.75,61.0
70.76,61.0
70.77,53.0
70.78,43.0
70.79,53.0
70.8,53.0
70.81,48.0
70.82,50.0
70.83,58.0
70.84,40.0
70.85,48.0
70.86,46.0
70.87,59.0
70.88,54.0
70.89,43.0
70.9,69.0
70.91,53.0
70.92,53.0
70.93,44.0
70.94,46.0
70.95,43.0
70.96,71.0
70.97,69.0
70.98,58.0
70.99,49.0
71.0,53.0
71.01,61.0
71.02,64.0
71.03,48.0
71.04,58.0
71.05,55.0
71.06,64.0
71.07,74.0
71.08,56.0
71.09,57.0
71.1,57.0
71.11,59.0
71.12,61.0
71.13,38.0
71.14,50.0
71.15,57.0
71.16,63.0
71.17,49.0
71.18,54.0
71.19,74.0
71.2,67.0
71.21,45.0
71.22,66.0
71.23,70.0
71.24,49.0
71.25,61.0
71.26,64.0
71.27,59.0
71.28,48.0
71.29,49.0
71.3,67.0
71.31,62.0
71.32,64.0
71.33,47.0
71.34,55.0
71.35,61.0
71.36,66.0
71.37,50.0
71.38,50.0
71.39,51.0
71.4,57.0
71.41,61.0
71.42,64.0
71.43,55.0
71.44,53.0
71.45,50.0
71.46,60.0
71.47,58.0
71.48,51.0
71.49,53.0
71.5,56.0
71.51,60.0
71.52,51.0
71.53,63.0
71.54,52.0
71.55,61.0
71.56,48.0
71.57,60.0
71.58,61.0
71.59,50.0
71.6,63.0
71.61,40.0
71.62,61.0
71.63,66.0
71.64,55.0
71.65,50.0
71.66,46.0
71.67,41.0
71.68,58.0
71.69,56.0
71.7,58.0
71.71,40.0
71.72,56.0
71.73,43.0
71.74,46.0
71.75,52.0
71.76,60.0
71.77,58.0
71.78,62.0
71.79,39.0
71.8,55.0
71.81,48.0
71.82,49.0
71.83,45.0
71.84,71.0
71.85,46.0
71.86,49.0
71.87,45.0
71.88,60.0
71.89,56.0
71.9,63.0
71.91,45.0
71.92,52.0
71.93,48.0
71.94,48.0
71.95,44.0
71.96,52.0
71.97,53.0
71.98,45.0
71.99,54.0
72.0,43.0
72.01,59.0
72.02,62.0
72.03,56.0
72.04,42.0
72.05,54.0
72.06,44.0
72.07,37.0
72.08,48.0
72.09,69.0
72.1,52.0
72.11,49.0
72.12,65.0
72.13,42.0
72.14,49.0
72.15,61.0
72.16,50.0
72.17,66.0
72.18,63.0
72.19,57.0
72.2,56.0
72.21,64.0
72.22,50.0
72.23,58.0
72.24,57.0
72.25,57.0
72.26,57.0
72.27,57.0
72.28,53.0
72.29,60.0
72.3,54.0
72.31,49.0
72.32,51.0
72.33,55.0
72.34,51.0
72.35,54.0
72.36,63.0
72.37,64.0
72.38,53.0
72.39,44.0
72.4,57.0
72.41,55.0
72.42,46.0
72.43,61.0
72.44,49.0
72.45,61.0
72.46,63.0
72.47,63.0
72.48,56.0
72.49,49.0
72.5,48.0
72.51,62.0
72.52,45.0
72.53,50.0
72.54,55.0
72.55,46.0
72.56,54.0
72.57,48.0
72.58,58.0
72.59,66.0
72.6,61.0
72.61,62.0
72.62,53.0
72.63,52.0
72.64,57.0
72.65,51.0
72.66,57.0
72.67,43.0
72.68,45.0
72.69,39.0
72.7,62.0
72.71,62.0
72.72,39.0
72.73,55.0
72.74,43.0
72.75,59.0
72.76,54.0
72.77,66.0
72.78,60.0
72.79,53.0
72.8,58.0
72.81,51.0
72.82,47.0
72.83,55.0
72.84,55.0
72.85,45.0
72.86,66.0
72.87,46.0
72.88,61.0
72.89,69.0
72.9,63.0
72.91,58.0
72.92,60.0
72.93,53.0
72.94,46.0
72.95,62.0
72.96,43.0
72.97,55.0
72.98,49.0
72.99,59.0
73.0,62.0
73.01,46.0
73.02,60.0
73.03,69.0
73.04,57.0
73.05,52.0
73.06,63.0
73.07,61.0
73.08,55.0
73.09,47.0
73.1,68.0
73.11,52.0
73.12,59.0
73.13,46.0
73.14,47.0
73.15,67.0
73.16,52.0
73.17,54.0
73.18,58.0
73.19,61.0
73.2,55.0
73.21,65.0
73.22,51.0
73.23,63.0
73.24,65.0
73.25,61.0
73.26,61.0
73.27,67.0
73.28,51.0
73.29,63.0
73.3,38.0
73.31,60.0
73.32,63.0
73.33,54.0
73.34,65.0
73.35,49.0
73.36,59.0
73.37,57.0
73.38,50.0
73.39,67.0
73.4,56.0
73.41,51.0
73.42,63.0
73.43,54.0
73.44,72.0
73.45,60.0
73.46,64.0
73.47,52.0
73.48,45.0
73.49,45.0
73.5,52.0
73.51,56.0
73.52,55.0
73.53,53.0
73.54,54.0
73.55,64.0
73.56,50.0
73.57,68.0
73.58,53.0
73.59,60.0
73.6,61.0
73.61,56.0
73.62,57.0
73.63,59.0
73.64,53.0
73.65,62.0
73.66,61.0
73.67,63.0
73.68,61.0
73.69,69.0
73.7,51.0
73.71,69.0
73.72,66.0
73.73,64.0
73.74,59.0
73.75,59.0
73.76,66.0
73.77,64.0
73.78,58.0
73.79,49.0
73.8,61.0
73.81,64.0
73.82,53.0
73.83,58.0
73.84,62.0
73.85,73.0
73.86,83.0
73.87,78.0
73.88,61.0
73.89,81.0
73.9,75.0
73.91,81.0
73.92,95.0
73.93,85.0
73.94,110.0
73.95,103.0
73.96,97.0
73.97,154.0
73.98,151.0
73.99,205.0
74.0,255.0
74.01,288.0
74.02,386.0
74.03,434.0
74.04,402.0
74.05,322.0
74.06,269.0
74.07,194.0
74.08,168.0
74.09,141.0
74.1,110.0
74.11,103.0
74.12,83.0
74.13,87.0
74.14,91.0
74.15,70.0
74.16,95.0
74.17,93.0
74.18,88.0
74.19,107.0
74.2,120.0
74.21,154.0
74.22,183.0
74.23,216.0
74.24,230.0
74.25,205.0
74.26,191.0
74.27,202.0
74.28,124.0
74.29,131.0
74.3,81.0
74.31,98.0
74.32,82.0
74.33,77.0
74.34,79.0
74.35,77.0
74.36,63.0
74.37,56.0
74.38,64.0
74.39,58.0
74.4,61.0
74.41,60.0
74.42,59.0
74.43,66.0
74.44,80.0
74.45,67.0
74.46,57.0
74.47,61.0
74.48,65.0
74.49,53.0
74.5,68.0
74.51,60.0
74.52,64.0
74.53,64.0
74.54,48.0
74.55,60.0
74.56,55.0
74.57,68.0
74.58,62.0
74.59,52.0
74.6,53.0
74.61,57.0
74.62,61.0
74.63,60.0
74.64,64.0
74.65,57.0
74.66,46.0
74.67,49.0
74.68,62.0
74.69,67.0
74.7,45.0
74.71,66.0
74.72,56.0
74.73,57.0
74.74,61.0
74.75,53.0
74.76,65.0
74.77,54.0
74.78,43.0
74.79,52.0
74.8,55.0
74.81,66.0
74.82,50.0
74.83,53.0
74.84,64.0
74.85,63.0
74.86,54.0
74.87,49.0
74.88,59.0
74.89,62.0
74.9,64.0
74.91,46.0
74.92,58.0
74.93,54.0
74.94,70.0
74.95,56.0
74.96,65.0
74.97,62.0
74.98,48.0
74.99,62.0
75.0,44.0
75.01,59.0
75.02,71.0
75.03,53.0
75.04,58.0
75.05,60.0
75.06,62.0
75.07,54.0
75.08,59.0
75.09,55.0
75.1,64.0
75.11,50.0
75.12,50.0
75.13,62.0
75.14,75.0
75.15,56.0
75.16,55.0
75.17,58.0
75.18,63.0
75.19,68.0
75.2,58.0
75.21,62.0
75.22,46.0
75.23,55.0
75.24,65.0
75.25,46.0
75.26,59.0
75.27,50.0
75.28,51.0
75.29,49.0
75.3,67.0
75.31,58.0
75.32,62.0
75.33,53.0
75.34,60.0
75.35,62.0
75.36,64.0
75.37,58.0
75.38,55.0
75.39,75.0
75.4,59.0
75.41,62.0
75.42,51.0
75.43,69.0
75.44,46.0
75.45,60.0
75.46,64.0
75.47,51.0
75.48,56.0
75.49,56.0
75.5,43.0
75.51,59.0
75.52,49.0
75.53,42.0
75.54,57.0
75.55,54.0
75.56,58.0
75.57,50.0
75.58,44.0
75.59,63.0
75.6,47.0
75.61,51.0
75.62,58.0
75.63,56.0
75.64,51.0
75.65,55.0
75.66,56.0
75.67,66.0
75.68,47.0
75.69,45.0
75.7,50.0
75.71,76.0
75.72,55.0
75.73,51.0
75.74,55.0
75.75,58.0
75.76,58.0
75.77,52.0
75.78,68.0
75.79,63.0
75.8,59.0
75.81,60.0
75.82,55.0
75.83,60.0
75.84,52.0
75.85,63.0
75.86,41.0
75.87,48.0
75.88,63.0
75.89,57.0
75.9,52.0
75.91,57.0
75.92,70.0
75.93,43.0
75.94,54.0
75.95,44.0
75.96,50.0
75.97,58.0
75.98,58.0
75.99,58.0
76.0,46.0
76.01,52.0
76.02,55.0
76.03,52.0
76.04,47.0
76.05,67.0
76.06,55.0
76.07,58.0
76.08,57.0
76.09,57.0
76.1,59.0
76.11,53.0
76.12,51.0
76.13,44.0
76.14,53.0
76.15,51.0
76.16,48.0
76.17,63.0
76.18,45.0
76.19,49.0
76.2,59.0
76.21,42.0
76.22,60.0
76.23,52.0
76.24,60.0
76.25,63.0
76.26,57.0
76.27,67.0
76.28,52.0
76.29,53.0
76.3,50.0
76.31,60.0
76.32,67.0
76.33,54.0
76.34,50.0
76.35,53.0
76.36,53.0
76.37,58.0
76.38,50.0
76.39,65.0
76.4,51.0
76.41,68.0
76.42,47.0
76.43,52.0
76.44,56.0
76.45,46.0
76.46,59.0
76.47,54.0
76.48,53.0
76.49,51.0
76.5,56.0
76.51,52.0
76.52,66.0
76.53,53.0
76.54,61.0
76.55,46.0
76.56,60.0
76.57,52.0
76.58,58.0
76.59,59.0
76.6,62.0
76.61,60.0
76.62,49.0
76.63,57.0
76.64,75.0
76.65,55.0
76.66,54.0
76.67,64.0
76.68,52.0
76.69,60.0
76.7,65.0
76.71,56.0
76.72,59.0
76.73,62.0
76.74,54.0
76.75,60.0
76.76,53.0
76.77,61.0
76.78,57.0
76.79,71.0
76.8,58.0
76.81,59.0
76.82,59.0
76.83,45.0
76.84,55.0
76.85,58.0
76.86,56.0
76.87,65.0
76.88,60.0
76.89,70.0
76.9,68.0
76.91,51.0
76.92,49.0
76.93,59.0
76.94,59.0
76.95,70.0
76.96,63.0
76.97,53.0
76.98,70.0
76.99,72.0
77.0,68.0
77.01,69.0
77.02,65.0
77.03,71.0
77.04,55.0
77.05,58.0
77.06,61.0
77.07,71.0
77.08,78.0
77.09,85.0
77.1,64.0
77.11,60.0
77.12,80.0
77.13,96.0
77.14,92.0
77.15,91.0
77.16,111.0
77.17,137.0
77.18,113.0
77.19,164.0
77.2,226.0
77.21,228.0
77.22,283.0
77.23,305.0
77.24,301.0
77.25,261.0
77.26,239.0
77.27,178.0
77.28,147.0
77.29,129.0
77.3,119.0
77.31,113.0
77.32,92.0
77.33,97.0
77.34,85.0
77.35,97.0
77.36,77.0
77.37,90.0
77.38,86.0
77.39,100.0
77.4,100.0
77.41,103.0
77.42,132.0
77.43,148.0
77.44,162.0
77.45,162.0
77.46,179.0
77.47,172.0
77.48,143.0
77.49,132.0
77.5,113.0
77.51,105.0
77.52,91.0
77.53,74.0
77.54,88.0
77.55,57.0
77.56,67.0
77.57,72.0
77.58,76.0
77.59,72.0
77.6,54.0
77.61,58.0
77.62,64.0
77.63,56.0
77.64,70.0
77.65,46.0
77.66,68.0
77.67,60.0
77.68,62.0
77.69,54.0
77.7,69.0
77.71,52.0
77.72,58.0
77.73,61.0
77.74,59.0
77.75,53.0
77.76,67.0
77.77,47.0
77.78,55.0
77.79,48.0
77.8,70.0
77.81,55.0
77.82,48.0
77.83,60.0
77.84,51.0
77.85,64.0
77.86,55.0
77.87,62.0
77.88,55.0
77.89,55.0
77.9,62.0
77.91,72.0
77.92,55.0
77.93,62.0
77.94,64.0
77.95,70.0
77.96,67.0
77.97,56.0
77.98,73.0
77.99,63.0
78.0,55.0
78.01,50.0
78.02,51.0
78.03,50.0
78.04,64.0
78.05,64.0
78.06,60.0
78.07,55.0
78.08,43.0
78.09,67.0
78.1,49.0
78.11,46.0
78.12,58.0
78.13,55.0
78.14,61.0
78.15,59.0
78.16,62.0
78.17,58.0
78.18,52.0
78.19,47.0
78.2,77.0
78.21,55.0
78.22,67.0
78.23,54.0
78.24,63.0
78.25,68.0
78.26,63.0
78.27,61.0
78.28,74.0
78.29,66.0
78.3,80.0
78.31,68.0
78.32,70.0
78.33,65.0
78.34,75.0
78.35,62.0
78.36,72.0
78.37,58.0
78.38,46.0
78.39,50.0
78.4,58.0
78.41,58.0
78.42,47.0
78.43,66.0
78.44,60.0
78.45,48.0
78.46,66.0
78.47,61.0
78.48,43.0
78.49,64.0
78.5,52.0
78.51,60.0
78.52,69.0
78.53,51.0
78.54,53.0
78.55,50.0
78.56,53.0
78.57,60.0
78.58,70.0
78.59,63.0
78.6,57.0
78.61,63.0
78.62,56.0
78.63,44.0
78.64,48.0
78.65,54.0
78.66,64.0
78.67,52.0
78.68,72.0
78.69,44.0
78.7,55.0
78.71,52.0
78.72,61.0
78.73,38.0
78.74,49.0
78.75,50.0
78.76,54.0
78.77,63.0
78.78,71.0
78.79,45.0
78.8,57.0
78.81,47.0
78.82,44.0
78.83,59.0
78.84,58.0
78.85,49.0
78.86,44.0
78.87,58.0
78.88,56.0
78.89,63.0
78.9,60.0
78.91,70.0
78.92,66.0
78.93,54.0
78.94,54.0
78.95,60.0
78.96,50.0
78.97,62.0
78.98,42.0
78.99,61.0
79.0,47.0
79.01,66.0
79.02,59.0
79.03,60.0
79.04,62.0
79.05,57.0
79.06,63.0
79.07,41.0
79.08,40.0
79.09,58.0
79.1,59.0
79.11,46.0
79.12,64.0
79.13,47.0
79.14,62.0
79.15,57.0
79.16,60.0
79.17,51.0
79.18,47.0
79.19,62.0
79.2,53.0
79.21,50.0
79.22,52.0
79.23,48.0
79.24,60.0
79.25,64.0
79.26,51.0
79.27,47.0
79.28,57.0
79.29,47.0
79.3,64.0
79.31,50.0
79.32,57.0
79.33,57.0
79.34,46.0
79.35,51.0
79.36,65.0
79.37,58.0
79.38,50.0
79.39,42.0
79.4,57.0
79.41,56.0
79.42,50.0
79.43,55.0
79.44,52.0
79.45,55.0
79.46,58.0
79.47,75.0
79.48,50.0
79.49,59.0
79.5,59.0
79.51,49.0
79.52,48.0
79.53,66.0
79.54,67.0
79.55,44.0
79.56,56.0
79.57,64.0
79.58,40.0
79.59,62.0
79.6,56.0
79.61,50.0
79.62,52.0
79.63,62.0
79.64,51.0
79.65,54.0
79.66,47.0
79.67,43.0
79.68,49.0
79.69,53.0
79.7,57.0
79.71,51.0
79.72,55.0
79.73,50.0
79.74,50.0
79.75,49.0
79.76,53.0
79.77,55.0
79.78,60.0
79.79,59.0
79.8,48.0
79.81,55.0
79.82,50.0
79.83,62.0
79.84,55.0
79.85,43.0
79.86,48.0
79.87,46.0
79.88,50.0
79.89,55.0
79.9,45.0
79.91,56.0
79.92,49.0
79.93,53.0
79.94,47.0
79.95,58.0
79.96,49.0
79.97,66.0
79.98,56.0
79.99,61.0
80.0,56.0
80.01,48.0
80.02,55.0
80.03,46.0
80.04,40.0
80.05,62.0
80.06,50.0
80.07,48.0
80.08,54.0
80.09,61.0
80.1,70.0
80.11,42.0
80.12,50.0
80.13,50.0
80.14,69.0
80.15,47.0
80.16,66.0
80.17,51.0
80.18,53.0
80.19,52.0
80.2,60.0
80.21,53.0
80.22,39.0
80.23,56.0
80.24,65.0
80.25,47.0
80.26,55.0
80.27,46.0
80.28,59.0
80.29,59.0
80.3,56.0
80.31,54.0
80.32,53.0
80.33,55.0
80.34,49.0
80.35,58.0
80.36,62.0
80.37,62.0
80.38,49.0
80.39,47.0
80.4,59.0
80.41,65.0
80.42,65.0
80.43,70.0
80.44,43.0
80.45,47.0
80.46,43.0
80.47,56.0
80.48,39.0
80.49,49.0
80.5,54.0
80.51,52.0
80.52,49.0
80.53,52.0
80.54,51.0
80.55,51.0
80.56,45.0
80.57,62.0
80.58,61.0
80.59,46.0
80.6,57.0
80.61,49.0
80.62,52.0
80.63,51.0
80.64,56.0
80.65,53.0
80.66,57.0
80.67,72.0
80.68,56.0
80.69,63.0
80.7,59.0
80.71,55.0
80.72,42.0
80.73,58.0
80.74,62.0
80.75,55.0
80.76,41.0
80.77,44.0
80.78,66.0
80.79,55.0
80.8,56.0
80.81,56.0
80.82,54.0
80.83,66.0
80.84,57.0
80.85,50.0
80.86,54.0
80.87,51.0
80.88,72.0
80.89,69.0
80.9,61.0
80.91,53.0
80.92,58.0
80.93,53.0
80.94,50.0
80.95,37.0
80.96,52.0
80.97,45.0
80.98,47.0
80.99,48.0
81.0,61.0
81.01,37.0
81.02,58.0
81.03,60.0
81.04,65.0
81.05,55.0
81.06,62.0
81.07,47.0
81.08,50.0
81.09,38.0
81.1,51.0
81.11,49.0
81.12,48.0
81.13,46.0
81.14,47.0
81.15,62.0
81.16,55.0
81.17,39.0
81.18,55.0
81.19,56.0
81.2,57.0
81.21,43.0
81.22,49.0
81.23,69.0
81.24,52.0
81.25,56.0
81.26,60.0
81.27,56.0
81.28,52.0
81.29,46.0
81.3,59.0
81.31,61.0
81.32,50.0
81.33,61.0
81.34,47.0
81.35,56.0
81.36,62.0
81.37,60.0
81.38,59.0
81.39,59.0
81.4,50.0
81.41,59.0
81.42,50.0
81.43,65.0
81.44,41.0
81.45,51.0
81.46,51.0
81.47,56.0
81.48,54.0
81.49,52.0
81.5,46.0
81.51,50.0
81.52,51.0
81.53,47.0
81.54,49.0
81.55,56.0
81.56,52.0
81.57,42.0
81.58,46.0
81.59,57.0
81.6,54.0
81.61,44.0
81.62,57.0
81.63,50.0
81.64,53.0
81.65,49.0
81.66,58.0
81.67,47.0
81.68,53.0
81.69,56.0
81.7,46.0
81.71,47.0
81.72,75.0
81.73,58.0
81.74,61.0
81.75,53.0
81.76,55.0
81.77,51.0
81.78,67.0
81.79,47.0
81.8,62.0
81.81,58.0
81.82,61.0
81.83,45.0
81.84,47.0
81.85,55.0
81.86,64.0
81.87,57.0
81.88,46.0
81.89,52.0
81.9,46.0
81.91,51.0
81.92,53.0
81.93,55.0
81.94,62.0
81.95,58.0
81.96,54.0
81.97,51.0
81.98,51.0
81.99,54.0
82.0,61.0
82.01,57.0
82.02,49.0
82.03,50.0
82.04,56.0
82.05,47.0
82.06,56.0
82.07,52.0
82.08,45.0
82.09,51.0
82.1,60.0
82.11,55.0
82.12,47.0
82.13,62.0
82.14,53.0
82.15,62.0
82.16,57.0
82.17,63.0
82.18,68.0
82.19,63.0
82.2,51.0
82.21,55.0
82.22,67.0
82.23,56.0
82.24,60.0
82.25,62.0
82.26,44.0
82.27,47.0
82.28,52.0
82.29,43.0
82.3,60.0
82.31,46.0
82.32,67.0
82.33,66.0
82.34,52.0
82.35,63.0
82.36,71.0
82.37,50.0
82.38,52.0
82.39,54.0
82.4,43.0
82.41,55.0
82.42,59.0
82.43,70.0
82.44,63.0
82.45,67.0
82.46,76.0
82.47,60.0
82.48,68.0
82.49,86.0
82.5,81.0
82.51,81.0
82.52,71.0
82.53,78.0
82.54,69.0
82.55,70.0
82.56,72.0
82.57,63.0
82.58,71.0
82.59,60.0
82.6,64.0
82.61,75.0
82.62,51.0
82.63,52.0
82.64,57.0
82.65,46.0
82.66,61.0
82.67,66.0
82.68,63.0
82.69,63.0
82.7,62.0
82.71,71.0
82.72,71.0
82.73,53.0
82.74,64.0
82.75,62.0
82.76,70.0
82.77,57.0
82.78,68.0
82.79,51.0
82.8,67.0
82.81,49.0
82.82,50.0
82.83,67.0
82.84,56.0
82.85,43.0
82.86,59.0
82.87,49.0
82.88,53.0
82.89,48.0
82.9,62.0
82.91,54.0
82.92,48.0
82.93,51.0
82.94,42.0
82.95,52.0
82.96,45.0
82.97,52.0
82.98,60.0
82.99,53.0
83.0,61.0
83.01,46.0
83.02,47.0
83.03,44.0
83.04,52.0
83.05,58.0
83.06,61.0
83.07,46.0
83.08,53.0
83.09,59.0
83.1,67.0
83.11,60.0
83.12,63.0
83.13,44.0
83.14,48.0
83.15,56.0
83.16,48.0
83.17,63.0
83.18,42.0
83.19,49.0
83.2,50.0
83.21,47.0
83.22,51.0
83.23,63.0
83.24,61.0
83.25,46.0
83.26,61.0
83.27,44.0
83.28,45.0
83.29,58.0
83.3,51.0
83.31,61.0
83.32,47.0
83.33,49.0
83.34,45.0
83.35,57.0
83.36,56.0
83.37,58.0
83.38,45.0
83.39,42.0
83.4,70.0
83.41,47.0
83.42,59.0
83.43,55.0
83.44,48.0
83.45,59.0
83.46,47.0
83.47,54.0
83.48,65.0
83.49,51.0
83.5,45.0
83.51,56.0
83.52,52.0
83.53,54.0
83.54,59.0
83.55,45.0
83.56,53.0
83.57,63.0
83.58,49.0
83.59,55.0
83.6,48.0
83.61,55.0
83.62,61.0
83.63,48.0
83.64,70.0
83.65,48.0
83.66,64.0
83.67,62.0
83.68,57.0
83.69,49.0
83.7,50.0
83.71,50.0
83.72,44.0
83.73,68.0
83.74,47.0
83.75,55.0
83.76,52.0
83.77,42.0
83.78,58.0
83.79,47.0
83.8,65.0
83.81,58.0
83.82,49.0
83.83,51.0
83.84,53.0
83.85,47.0
83.86,60.0
83.87,48.0
83.88,57.0
83.89,55.0
83.9,52.0
83.91,57.0
83.92,58.0
83.93,63.0
83.94,56.0
83.95,52.0
83.96,67.0
83.97,53.0
83.98,60.0
83.99,36.0
84.0,61.0
84.01,56.0
84.02,65.0
84.03,39.0
84.04,72.0
84.05,58.0
84.06,58.0
84.07,57.0
84.08,47.0
84.09,48.0
84.1,46.0
84.11,45.0
84.12,58.0
84.13,63.0
84.14,40.0
84.15,62.0
84.16,42.0
84.17,61.0
84.18,62.0
84.19,55.0
84.2,52.0
84.21,63.0
84.22,55.0
84.23,67.0
84.24,49.0
84.25,54.0
84.26,58.0
84.27,58.0
84.28,45.0
84.29,44.0
84.3,63.0
84.31,63.0
84.32,55.0
84.33,58.0
84.34,41.0
84.35,37.0
84.36,57.0
84.37,40.0
84.38,61.0
84.39,59.0
84.4,62.0
84.41,65.0
84.42,44.0
84.43,40.0
84.44,53.0
84.45,42.0
84.46,67.0
84.47,39.0
84.48,53.0
84.49,54.0
84.5,61.0
84.51,54.0
84.52,53.0
84.53,63.0
84.54,52.0
84.55,55.0
84.56,54.0
84.57,47.0
84.58,49.0
84.59,66.0
84.6,43.0
84.61,56.0
84.62,51.0
84.63,53.0
84.64,47.0
84.65,48.0
84.66,64.0
84.67,43.0
84.68,42.0
84.69,53.0
84.7,59.0
84.71,59.0
84.72,57.0
84.73,68.0
84.74,58.0
84.75,60.0
84.76,65.0
84.77,57.0
84.78,43.0
84.79,50.0
84.8,45.0
84.81,54.0
84.82,56.0
84.83,67.0
84.84,65.0
84.85,61.0
84.86,59.0
84.87,61.0
84.88,55.0
84.89,63.0
84.9,48.0
84.91,52.0
84.92,57.0
84.93,42.0
84.94,52.0
84.95,51.0
84.96,64.0
84.97,57.0
84.98,52.0
84.99,52.0
85.0,69.0
85.01,53.0
85.02,56.0
85.03,45.0
85.04,50.0
85.05,44.0
85.06,53.0
85.07,55.0
85.08,50.0
85.09,50.0
85.1,60.0
85.11,71.0
85.12,71.0
85.13,49.0
85.14,50.0
85.15,62.0
85.16,56.0
85.17,48.0
85.18,53.0
85.19,41.0
85.2,55.0
85.21,54.0
85.22,52.0
85.23,49.0
85.24,59.0
85.25,60.0
85.26,55.0
85.27,59.0
85.28,56.0
85.29,49.0
85.3,47.0
85.31,66.0
85.32,50.0
85.33,68.0
85.34,57.0
85.35,49.0
85.36,58.0
85.37,57.0
85.38,48.0
85.39,61.0
85.4,62.0
85.41,47.0
85.42,58.0
85.43,54.0
85.44,59.0
85.45,47.0
85.46,46.0
85.47,64.0
85.48,55.0
85.49,49.0
85.5,41.0
85.51,60.0
85.52,64.0
85.53,52.0
85.54,50.0
85.55,45.0
85.56,71.0
85.57,54.0
85.58,62.0
85.59,65.0
85.6,53.0
85.61,73.0
85.62,62.0
85.63,77.0
85.64,68.0
85.65,81.0
85.66,56.0
85.67,51.0
85.68,61.0
85.69,40.0
85.7,93.0
85.71,59.0
85.72,50.0
85.73,72.0
85.74,62.0
85.75,57.0
85.76,61.0
85.77,55.0
85.78,59.0
85.79,58.0
85.8,63.0
85.81,56.0
85.82,55.0
85.83,51.0
85.84,54.0
85.85,56.0
85.86,65.0
85.87,69.0
85.88,74.0
85.89,57.0
85.9,60.0
85.91,63.0
85.92,53.0
85.93,57.0
85.94,61.0
85.95,41.0
85.96,60.0
85.97,55.0
85.98,70.0
85.99,54.0
86.0,59.0
86.01,69.0
86.02,57.0
86.03,50.0
86.04,64.0
86.05,44.0
86.06,50.0
86.07,55.0
86.08,46.0
86.09,54.0
86.1,41.0
86.11,46.0
86.12,49.0
86.13,43.0
86.14,61.0
86.15,55.0
86.16,62.0
86.17,45.0
86.18,49.0
86.19,59.0
86.2,55.0
86.21,62.0
86.22,46.0
86.23,52.0
86.24,57.0
86.25,61.0
86.26,57.0
86.27,53.0
86.28,65.0
86.29,55.0
86.3,56.0
86.31,57.0
86.32,56.0
86.33,51.0
86.34,58.0
86.35,60.0
86.36,52.0
86.37,49.0
86.38,47.0
86.39,60.0
86.4,56.0
86.41,33.0
86.42,62.0
86.43,56.0
86.44,59.0
86.45,56.0
86.46,56.0
86.47,47.0
86.48,66.0
86.49,53.0
86.5,60.0
86.51,48.0
86.52,41.0
86.53,65.0
86.54,54.0
86.55,53.0
86.56,57.0
86.57,40.0
86.58,43.0
86.59,53.0
86.6,61.0
86.61,67.0
86.62,55.0
86.63,49.0
86.64,44.0
86.65,55.0
86.66,49.0
86.67,62.0
86.68,56.0
86.69,67.0
86.7,42.0
86.71,65.0
86.72,65.0
86.73,55.0
86.74,53.0
86.75,53.0
86.76,60.0
86.77,50.0
86.78,59.0
86.79,57.0
86.8,59.0
86.81,57.0
86.82,51.0
86.83,54.0
86.84,52.0
86.85,49.0
86.86,46.0
86.87,56.0
86.88,60.0
86.89,63.0
86.9,66.0
86.91,39.0
86.92,53.0
86.93,79.0
86.94,58.0
86.95,63.0
86.96,69.0
86.97,59.0
86.98,47.0
86.99,65.0
87.0,52.0
87.01,44.0
87.02,47.0
87.03,59.0
87.04,50.0
87.05,60.0
87.06,54.0
87.07,57.0
87.08,59.0
87.09,56.0
87.1,52.0
87.11,66.0
87.12,50.0
87.13,57.0
87.14,58.0
87.15,61.0
87.16,72.0
87.17,46.0
87.18,56.0
87.19,60.0
87.2,48.0
87.21,64.0
87.22,48.0
87.23,68.0
87.24,55.0
87.25,51.0
87.26,50.0
87.27,65.0
87.28,39.0
87.29,49.0
87.3,55.0
87.31,42.0
87.32,49.0
87.33,58.0
87.34,48.0
87.35,56.0
87.36,66.0
87.37,53.0
87.38,39.0
87.39,50.0
87.4,61.0
87.41,56.0
87.42,44.0
87.43,54.0
87.44,61.0
87.45,48.0
87.46,64.0
87.47,50.0
87.48,61.0
87.49,48.0
87.5,47.0
87.51,60.0
87.52,56.0
87.53,50.0
87.54,68.0
87.55,45.0
87.56,59.0
87.57,52.0
87.58,65.0
87.59,46.0
87.6,59.0
87.61,51.0
87.62,46.0
87.63,53.0
87.64,57.0
87.65,57.0
87.66,38.0
87.67,53.0
87.68,56.0
87.69,59.0
87.7,41.0
87.71,59.0
87.72,59.0
87.73,58.0
87.74,53.0
87.75,51.0
87.76,54.0
87.77,59.0
87.78,58.0
87.79,75.0
87.8,55.0
87.81,48.0
87.82,59.0
87.83,40.0
87.84,47.0
87.85,61.0
87.86,33.0
87.87,51.0
87.88,45.0
87.89,56.0
87.9,39.0
87.91,66.0
87.92,61.0
87.93,53.0
87.94,62.0
87.95,48.0
87.96,55.0
87.97,57.0
87.98,50.0
87.99,60.0
88.0,56.0
88.01,60.0
88.02,58.0
88.03,50.0
88.04,52.0
88.05,66.0
88.06,51.0
88.07,54.0
88.08,57.0
88.09,63.0
88.1,50.0
88.11,56.0
88.12,48.0
88.13,40.0
88.14,56.0
88.15,57.0
88.16,41.0
88.17,70.0
88.18,56.0
88.19,53.0
88.2,55.0
88.21,53.0
88.22,63.0
88.23,48.0
88.24,62.0
88.25,56.0
88.26,52.0
88.27,57.0
88.28,50.0
88.29,64.0
88.3,41.0
88.31,57.0
88.32,54.0
88.33,56.0
88.34,57.0
88.35,52.0
88.36,56.0
88.37,56.0
88.38,57.0
88.39,62.0
88.4,51.0
88.41,49.0
88.42,51.0
88.43,51.0
88.44,46.0
88.45,64.0
88.46,61.0
88.47,46.0
88.48,51.0
88.49,52.0
88.5,58.0
88.51,64.0
88.52,65.0
88.53,56.0
88.54,64.0
88.55,58.0
88.56,54.0
88.57,43.0
88.58,56.0
88.59,58.0
88.6,51.0
88.61,50.0
88.62,77.0
88.63,60.0
88.64,48.0
88.65,80.0
88.66,63.0
88.67,51.0
88.68,44.0
88.69,48.0
88.7,48.0
88.71,49.0
88.72,57.0
88.73,55.0
88.74,48.0
88.75,57.0
88.76,57.0
88.77,52.0
88.78,67.0
88.79,54.0
88.8,54.0
88.81,62.0
88.82,51.0
88.83,47.0
88.84,56.0
88.85,50.0
88.86,54.0
88.87,62.0
88.88,59.0
88.89,43.0
88.9,50.0
88.91,38.0
88.92,49.0
88.93,52.0
88.94,63.0
88.95,42.0
88.96,53.0
88.97,53.0
88.98,57.0
88.99,54.0
89.0,55.0
89.01,58.0
89.02,46.0
89.03,64.0
89.04,54.0
89.05,46.0
89.06,66.0
89.07,53.0
89.08,47.0
89.09,52.0
89.1,50.0
89.11,45.0
89.12,56.0
89.13,59.0
89.14,55.0
89.15,48.0
89.16,58.0
89.17,58.0
89.18,61.0
89.19,41.0
89.2,51.0
89.21,56.0
89.22,55.0
89.23,64.0
89.24,48.0
89.25,46.0
89.26,51.0
89.27,38.0
89.28,42.0
89.29,57.0
89.3,60.0
89.31,47.0
89.32,47.0
89.33,55.0
89.34,50.0
89.35,57.0
89.36,63.0
89.37,68.0
89.38,69.0
89.39,49.0
89.4,58.0
89.41,52.0
89.42,51.0
89.43,51.0
89.44,60.0
89.45,72.0
89.46,56.0
89.47,62.0
89.48,51.0
89.49,46.0
89.5,58.0
89.51,55.0
89.52,70.0
89.53,53.0
89.54,53.0
89.55,47.0
89.56,60.0
89.57,54.0
89.58,56.0
89.59,60.0
89.6,52.0
89.61,74.0
89.62,58.0
89.63,54.0
89.64,47.0
89.65,55.0
89.66,53.0
89.67,56.0
89.68,60.0
89.69,54.0
89.7,54.0
89.71,44.0
89.72,49.0
89.73,49.0
89.74,50.0
89.75,46.0
89.76,53.0
89.77,57.0
89.78,47.0
89.79,63.0
89.8,62.0
89.81,41.0
89.82,56.0
89.83,48.0
89.84,52.0
89.85,58.0
89.86,62.0
89.87,50.0
89.88,58.0
89.89,52.0
89.9,45.0
89.91,54.0
89.92,54.0
89.93,58.0
89.94,51.0
89.95,57.0
89.96,57.0
89.97,66.0
89.98,50.0
89.99,59.0
