angle,intensity
5.0,46.0
5.01,52.0
5.02,36.0
5.03,50.0
5.04,41.0
5.05,44.0
5.06,56.0
5.07,45.0
5.08,47.0
5.09,45.0
5.1,48.0
5.11,49.0
5.12,44.0
5.13,37.0
5.14,34.0
5.15,46.0
5.16,39.0
5.17,53.0
5.18,35.0
5.19,42.0
5.2,43.0
5.21,27.0
5.22,43.0
5.23,44.0
5.24,46.0
5.25,26.0
5.26,50.0
5.27,37.0
5.28,40.0
5.29,51.0
5.3,40.0
5.31,46.0
5.32,44.0
5.33,56.0
5.34,37.0
5.35,40.0
5.36,54.0
5.37,48.0
5.38,42.0
5.39,46.0
5.4,28.0
5.41,44.0
5.42,45.0
5.43,45.0
5.44,37.0
5.45,45.0
5.46,42.0
5.47,49.0
5.48,45.0
5.49,47.0
5.5,38.0
5.51,44.0
5.52,49.0
5.53,52.0
5.54,37.0
5.55,38.0
5.56,49.0
5.57,55.0
5.58,45.0
5.59,42.0
5.6,56.0
5.61,48.0
5.62,43.0
5.63,42.0
5.64,43.0
5.65,40.0
5.66,46.0
5.67,44.0
5.68,45.0
5.69,47.0
5.7,45.0
5.71,40.0
5.72,53.0
5.73,52.0
5.74,47.0
5.75,47.0
5.76,46.0
5.77,45.0
5.78,48.0
5.79,48.0
5.8,42.0
5.81,49.0
5.82,40.0
5.83,41.0
5.84,46.0
5.85,48.0
5.86,55.0
5.87,65.0
5.88,47.0
5.89,57.0
5.9,47.0
5.91,51.0
5.92,46.0
5.93,45.0
5.94,66.0
5.95,42.0
5.96,57.0
5.97,43.0
5.98,50.0
5.99,44.0
6.0,54.0
6.01,53.0
6.02,44.0
6.03,55.0
6.04,42.0
6.05,42.0
6.06,45.0
6.07,55.0
6.08,42.0
6.09,62.0
6.1,47.0
6.11,42.0
6.12,41.0
6.13,42.0
6.14,53.0
6.15,34.0
6.16,42.0
6.17,50.0
6.18,40.0
6.19,44.0
6.2,49.0
6.21,54.0
6.22,54.0
6.23,55.0
6.24,33.0
6.25,35.0
6.26,51.0
6.27,47.0
6.28,53.0
6.29,45.0
6.3,40.0
6.31,51.0
6.32,48.0
6.33,39.0
6.34,52.0
6.35,59.0
6.36,56.0
6.37,57.0
6.38,50.0
6.39,47.0
6.4,44.0
6.41,53.0
6.42,45.0
6.43,53.0
6.44,65.0
6.45,50.0
6.46,40.0
6.47,53.0
6.48,64.0
6.49,42.0
6.5,51.0
6.51,45.0
6.52,46.0
6.53,45.0
6.54,57.0
6.55,47.0
6.56,38.0
6.57,62.0
6.58,52.0
6.59,44.0
6.6,55.0
6.61,59.0
6.62,54.0
6.63,46.0
6.64,61.0
6.65,46.0
6.66,50.0
6.67,41.0
6.68,59.0
6.69,41.0
6.7,40.0
6.71,47.0
6.72,47.0
6.73,55.0
6.74,46.0
6.75,46.0
6.76,52.0
6.77,48.0
6.78,64.0
6.79,45.0
6.8,45.0
6.81,43.0
6.82,54.0
6.83,53.0
6.84,49.0
6.85,56.0
6.86,50.0
6.87,62.0
6.88,46.0
6.89,54.0
6.9,58.0
6.91,49.0
6.92,50.0
6.93,44.0
6.94,49.0
6.95,58.0
6.96,51.0
6.97,51.0
6.98,41.0
6.99,43.0
7.0,54.0
7.01,53.0
7.02,44.0
7.03,43.0
7.04,60.0
7.05,49.0
7.06,46.0
7.07,52.0
7.08,56.0
7.09,46.0
7.1,61.0
7.11,63.0
7.12,57.0
7.13,60.0
7.14,39.0
7.15,54.0
7.16,59.0
7.17,69.0
7.18,57.0
7.19,51.0
7.2,53.0
7.21,48.0
7.22,66.0
7.23,61.0
7.24,51.0
7.25,52.0
7.26,58.0
7.27,55.0
7.28,58.0
7.29,46.0
7.3,52.0
7.31,57.0
7.32,43.0
7.33,56.0
7.34,59.0
7.35,61.0
7.36,52.0
7.37,66.0
7.38,76.0
7.39,43.0
7.4,47.0
7.41,51.0
7.42,51.0
7.43,40.0
7.44,51.0
7.45,59.0
7.46,62.0
7.47,64.0
7.48,58.0
7.49,59.0
7.5,55.0
7.51,42.0
7.52,61.0
7.53,46.0
7.54,54.0
7.55,48.0
7.56,55.0
7.57,42.0
7.58,63.0
7.59,63.0
7.6,55.0
7.61,44.0
7.62,58.0
7.63,61.0
7.64,53.0
7.65,60.0
7.66,63.0
7.67,61.0
7.68,55.0
7.69,48.0
7.7,63.0
7.71,66.0
7.72,66.0
7.73,65.0
7.74,50.0
7.75,63.0
7.76,58.0
7.77,53.0
7.78,53.0
7.79,56.0
7.8,48.0
7.81,68.0
7.82,71.0
7.83,61.0
7.84,55.0
7.85,59.0
7.86,55.0
7.87,59.0
7.88,61.0
7.89,67.0
7.9,49.0
7.91,43.0
7.92,52.0
7.93,62.0
7.94,57.0
7.95,58.0
7.96,75.0
7.97,52.0
7.98,62.0
7.99,55.0
8.0,49.0
8.01,51.0
8.02,64.0
8.03,54.0
8.04,51.0
8.05,51.0
8.06,52.0
8.07,65.0
8.08,53.0
8.09,53.0
8.1,64.0
8.11,62.0
8.12,58.0
8.13,56.0
8.14,53.0
8.15,57.0
8.16,59.0
8.17,45.0
8.18,41.0
8.19,48.0
8.2,59.0
8.21,66.0
8.22,50.0
8.23,68.0
8.24,64.0
8.25,57.0
8.26,52.0
8.27,54.0
8.28,43.0
8.29,54.0
8.3,46.0
8.31,51.0
8.32,51.0
8.33,49.0
8.34,62.0
8.35,59.0
8.36,53.0
8.37,54.0
8.38,54.0
8.39,62.0
8.4,58.0
8.41,49.0
8.42,54.0
8.43,66.0
8.44,47.0
8.45,46.0
8.46,55.0
8.47,59.0
8.48,54.0
8.49,66.0
8.5,54.0
8.51,53.0
8.52,51.0
8.53,58.0
8.54,53.0
8.55,52.0
8.56,57.0
8.57,52.0
8.58,55.0
8.59,56.0
8.6,60.0
8.61,63.0
8.62,62.0
8.63,64.0
8.64,38.0
8.65,34.0
8.66,43.0
8.67,47.0
8.68,47.0
8.69,59.0
8.7,55.0
8.71,50.0
8.72,44.0
8.73,65.0
8.74,59.0
8.75,63.0
8.76,57.0
8.77,47.0
8.78,54.0
8.79,50.0
8.8,75.0
8.81,56.0
8.82,51.0
8.83,53.0
8.84,56.0
8.85,60.0
8.86,57.0
8.87,43.0
8.88,53.0
8.89,58.0
8.9,49.0
8.91,52.0
8.92,59.0
8.93,41.0
8.94,57.0
8.95,68.0
8.96,50.0
8.97,56.0
8.98,60.0
8.99,58.0
9.0,72.0
9.01,62.0
9.02,59.0
9.03,59.0
9.04,56.0
9.05,48.0
9.06,53.0
9.07,47.0
9.08,51.0
9.09,48.0
9.1,58.0
9.11,61.0
9.12,60.0
9.13,59.0
9.14,55.0
9.15,52.0
9.16,60.0
9.17,53.0
9.18,49.0
9.19,55.0
9.2,50.0
9.21,63.0
9.22,60.0
9.23,54.0
9.24,69.0
9.25,69.0
9.26,44.0
9.27,50.0
9.28,56.0
9.29,54.0
9.3,52.0
9.31,53.0
9.32,46.0
9.33,57.0
9.34,62.0
9.35,52.0
9.36,55.0
9.37,52.0
9.38,52.0
9.39,40.0
9.4,53.0
9.41,49.0
9.42,56.0
9.43,50.0
9.44,60.0
9.45,72.0
9.46,45.0
9.47,56.0
9.48,49.0
9.49,55.0
9.5,50.0
9.51,62.0
9.52,47.0
9.53,52.0
9.54,51.0
9.55,65.0
9.56,57.0
9.57,45.0
9.58,65.0
9.59,58.0
9.6,49.0
9.61,43.0
9.62,59.0
9.63,54.0
9.64,64.0
9.65,63.0
9.66,53.0
9.67,59.0
9.68,63.0
9.69,63.0
9.7,54.0
9.71,66.0
9.72,51.0
9.73,57.0
9.74,63.0
9.75,60.0
9.76,46.0
9.77,52.0
9.78,52.0
9.79,52.0
9.8,59.0
9.81,66.0
9.82,60.0
9.83,56.0
9.84,44.0
9.85,52.0
9.86,59.0
9.87,53.0
9.88,60.0
9.89,65.0
9.9,53.0
9.91,64.0
9.92,69.0
9.93,56.0
9.94,67.0
9.95,60.0
9.96,56.0
9.97,53.0
9.98,61.0
9.99,47.0
10.0,63.0
10.01,57.0
10.02,55.0
10.03,50.0
10.04,52.0
10.05,60.0
10.06,69.0
10.07,63.0
10.08,48.0
10.09,56.0
10.1,57.0
10.11,59.0
10.12,61.0
10.13,64.0
10.14,71.0
10.15,60.0
10.16,48.0
10.17,65.0
10.18,53.0
10.19,65.0
10.2,60.0
10.21,52.0
10.22,56.0
10.23,59.0
10.24,55.0
10.25,55.0
10.26,56.0
10.27,46.0
10.28,40.0
10.29,56.0
10.3,57.0
10.31,54.0
10.32,53.0
10.33,64.0
10.34,68.0
10.35,60.0
10.36,48.0
10.37,46.0
10.38,83.0
10.39,54.0
10.4,64.0
10.41,74.0
10.42,53.0
10.43,65.0
10.44,62.0
10.45,70.0
10.46,58.0
10.47,62.0
10.48,55.0
10.49,58.0
10.5,63.0
10.51,52.0
10.52,56.0
10.53,59.0
10.54,52.0
10.55,56.0
10.56,55.0
10.57,50.0
10.58,79.0
10.59,55.0
10.6,66.0
10.61,47.0
10.62,64.0
10.63,50.0
10.64,56.0
10.65,45.0
10.66,60.0
10.67,55.0
10.68,48.0
10.69,53.0
10.7,62.0
10.71,53.0
10.72,58.0
10.73,65.0
10.74,52.0
10.75,50.0
10.76,55.0
10.77,65.0
10.78,56.0
10.79,51.0
10.8,66.0
10.81,49.0
10.82,60.0
10.83,59.0
10.84,63.0
10.85,53.0
10.86,58.0
10.87,53.0
10.88,50.0
10.89,59.0
10.9,63.0
10.91,66.0
10.92,51.0
10.93,59.0
10.94,42.0
10.95,57.0
10.96,57.0
10.97,62.0
10.98,60.0
10.99,54.0
11.0,59.0
11.01,54.0
11.02,65.0
11.03,59.0
11.04,45.0
11.05,54.0
11.06,57.0
11.07,57.0
11.08,59.0
11.09,52.0
11.1,64.0
11.11,56.0
11.12,65.0
11.13,65.0
11.14,72.0
11.15,61.0
11.16,65.0
11.17,63.0
11.18,67.0
11.19,55.0
11.2,66.0
11.21,56.0
11.22,59.0
11.23,51.0
11.24,57.0
11.25,55.0
11.26,63.0
11.27,63.0
11.28,61.0
11.29,62.0
11.3,55.0
11.31,59.0
11.32,70.0
11.33,56.0
11.34,53.0
11.35,68.0
11.36,47.0
11.37,59.0
11.38,49.0
11.39,57.0
11.4,51.0
11.41,45.0
11.42,62.0
11.43,61.0
11.44,47.0
11.45,58.0
11.46,65.0
11.47,60.0
11.48,64.0
11.49,58.0
11.5,45.0
11.51,61.0
11.52,53.0
11.53,63.0
11.54,44.0
11.55,58.0
11.56,68.0
11.57,67.0
11.58,60.0
11.59,65.0
11.6,54.0
11.61,69.0
11.62,46.0
11.63,59.0
11.64,48.0
11.65,59.0
11.66,56.0
11.67,56.0
11.68,55.0
11.69,56.0
11.7,58.0
11.71,48.0
11.72,53.0
11.73,62.0
11.74,61.0
11.75,68.0
11.76,50.0
11.77,63.0
11.78,69.0
11.79,47.0
11.8,53.0
11.81,68.0
11.82,69.0
11.83,61.0
11.84,71.0
11.85,65.0
11.86,53.0
11.87,63.0
11.88,61.0
11.89,60.0
11.9,71.0
11.91,68.0
11.92,62.0
11.93,70.0
11.94,65.0
11.95,46.0
11.96,62.0
11.97,68.0
11.98,49.0
11.99,45.0
12.0,57.0
12.01,67.0
12.02,55.0
12.03,62.0
12.04,67.0
12.05,55.0
12.06,56.0
12.07,48.0
12.08,45.0
12.09,60.0
12.1,71.0
12.11,71.0
12.12,56.0
12.13,62.0
12.14,66.0
12.15,44.0
12.16,54.0
12.17,70.0
12.18,56.0
12.19,71.0
12.2,59.0
12.21,62.0
12.22,61.0
12.23,46.0
12.24,60.0
12.25,70.0
12.26,59.0
12.27,68.0
12.28,58.0
12.29,79.0
12.3,68.0
12.31,53.0
12.32,42.0
12.33,64.0
12.34,62.0
12.35,64.0
12.36,58.0
12.37,66.0
12.38,63.0
12.39,66.0
12.4,57.0
12.41,61.0
12.42,55.0
12.43,40.0
12.44,64.0
12.45,41.0
12.46,60.0
12.47,66.0
12.48,64.0
12.49,55.0
12.5,46.0
12.51,69.0
12.52,57.0
12.53,62.0
12.54,60.0
12.55,47.0
12.56,48.0
12.57,60.0
12.58,56.0
12.59,52.0
12.6,66.0
12.61,68.0
12.62,61.0
12.63,63.0
12.64,63.0
12.65,72.0
12.66,52.0
12.67,58.0
12.68,45.0
12.69,62.0
12.7,54.0
12.71,76.0
12.72,59.0
12.73,72.0
12.74,57.0
12.75,50.0
12.76,55.0
12.77,65.0
12.78,64.0
12.79,60.0
12.8,55.0
12.81,65.0
12.82,68.0
12.83,63.0
12.84,52.0
12.85,55.0
12.86,64.0
12.87,71.0
12.88,56.0
12.89,58.0
12.9,49.0
12.91,71.0
12.92,49.0
12.93,79.0
12.94,54.0
12.95,63.0
12.96,62.0
12.97,66.0
12.98,64.0
12.99,42.0
13.0,58.0
13.01,49.0
13.02,60.0
13.03,53.0
13.04,69.0
13.05,49.0
13.06,54.0
13.07,63.0
13.08,47.0
13.09,78.0
13.1,62.0
13.11,64.0
13.12,53.0
13.13,52.0
13.14,63.0
13.15,65.0
13.16,53.0
13.17,54.0
13.18,70.0
13.19,63.0
13.2,60.0
13.21,62.0
13.22,69.0
13.23,46.0
13.24,67.0
13.25,61.0
13.26,54.0
13.27,57.0
13.28,58.0
13.29,58.0
13.3,64.0
13.31,51.0
13.32,57.0
13.33,43.0
13.34,51.0
13.35,55.0
13.36,48.0
13.37,72.0
13.38,50.0
13.39,65.0
13.4,65.0
13.41,58.0
13.42,66.0
13.43,63.0
13.44,57.0
13.45,66.0
13.46,71.0
13.47,80.0
13.48,57.0
13.49,65.0
13.5,64.0
13.51,55.0
13.52,69.0
13.53,55.0
13.54,56.0
13.55,55.0
13.56,67.0
13.57,41.0
13.58,57.0
13.59,65.0
13.6,59.0
13.61,66.0
13.62,71.0
13.63,59.0
13.64,50.0
13.65,48.0
13.66,57.0
13.67,58.0
13.68,57.0
13.69,53.0
13.7,63.0
13.71,58.0
13.72,66.0
13.73,59.0
13.74,62.0
13.75,63.0
13.76,64.0
13.77,72.0
13.78,62.0
13.79,58.0
13.8,57.0
13.81,70.0
13.82,66.0
13.83,51.0
13.84,62.0
13.85,73.0
13.86,67.0
13.87,66.0
13.88,64.0
13.89,68.0
13.9,51.0
13.91,56.0
13.92,60.0
13.93,64.0
13.94,63.0
13.95,49.0
13.96,45.0
13.97,77.0
13.98,62.0
13.99,70.0
14.0,79.0
14.01,71.0
14.02,55.0
14.03,46.0
14.04,58.0
14.05,76.0
14.06,58.0
14.07,47.0
14.08,61.0
14.09,64.0
14.1,60.0
14.11,54.0
14.12,58.0
14.13,58.0
14.14,57.0
14.15,64.0
14.16,74.0
14.17,54.0
14.18,64.0
14.19,56.0
14.2,59.0
14.21,53.0
14.22,62.0
14.23,68.0
14.24,60.0
14.25,63.0
14.26,69.0
14.27,61.0
14.28,65.0
14.29,57.0
14.3,56.0
14.31,50.0
14.32,51.0
14.33,60.0
14.34,71.0
14.35,63.0
14.36,55.0
14.37,64.0
14.38,66.0
14.39,52.0
14.4,60.0
14.41,66.0
14.42,60.0
14.43,61.0
14.44,47.0
14.45,63.0
14.46,53.0
14.47,69.0
14.48,56.0
14.49,61.0
14.5,64.0
14.51,63.0
14.52,65.0
14.53,67.0
14.54,63.0
14.55,64.0
14.56,54.0
14.57,55.0
14.58,65.0
14.59,52.0
14.6,57.0
14.61,54.0
14.62,65.0
14.63,69.0
14.64,49.0
14.65,62.0
14.66,58.0
14.67,56.0
14.68,58.0
14.69,59.0
14.7,56.0
14.71,71.0
14.72,61.0
14.73,55.0
14.74,80.0
14.75,51.0
14.76,59.0
14.77,54.0
14.78,56.0
14.79,78.0
14.8,73.0
14.81,50.0
14.82,52.0
14.83,58.0
14.84,74.0
14.85,64.0
14.86,67.0
14.87,64.0
14.88,49.0
14.89,46.0
14.9,62.0
14.91,83.0
14.92,58.0
14.93,66.0
14.94,70.0
14.95,75.0
14.96,61.0
14.97,71.0
14.98,62.0
14.99,68.0
15.0,61.0
15.01,57.0
15.02,70.0
15.03,64.0
15.04,58.0
15.05,73.0
15.06,50.0
15.07,67.0
15.08,69.0
15.09,69.0
15.1,61.0
15.11,58.0
15.12,68.0
15.13,67.0
15.14,82.0
15.15,64.0
15.16,62.0
15.17,60.0
15.18,50.0
15.19,70.0
15.2,74.0
15.21,72.0
15.22,70.0
15.23,94.0
15.24,79.0
15.25,70.0
15.26,101.0
15.27,94.0
15.28,100.0
15.29,113.0
15.3,129.0
15.31,121.0
15.32,116.0
15.33,135.0
15.34,160.0
15.35,183.0
15.36,174.0
15.37,147.0
15.38,149.0
15.39,119.0
15.4,132.0
15.41,102.0
15.42,91.0
15.43,78.0
15.44,101.0
15.45,78.0
15.46,64.0
15.47,68.0
15.48,61.0
15.49,53.0
15.5,66.0
15.51,84.0
15.52,50.0
15.53,59.0
15.54,67.0
15.55,49.0
15.56,82.0
15.57,76.0
15.58,65.0
15.59,56.0
15.6,59.0
15.61,60.0
15.62,63.0
15.63,53.0
15.64,69.0
15.65,75.0
15.66,54.0
15.67,52.0
15.68,59.0
15.69,62.0
15.7,65.0
15.71,69.0
15.72,74.0
15.73,68.0
15.74,63.0
15.75,62.0
15.76,64.0
15.77,65.0
15.78,69.0
15.79,76.0
15.8,63.0
15.81,69.0
15.82,58.0
15.83,57.0
15.84,60.0
15.85,58.0
15.86,60.0
15.87,50.0
15.88,84.0
15.89,76.0
15.9,58.0
15.91,78.0
15.92,63.0
15.93,63.0
15.94,57.0
15.95,52.0
15.96,85.0
15.97,66.0
15.98,68.0
15.99,67.0
16.0,51.0
16.01,62.0
16.02,61.0
16.03,59.0
16.04,65.0
16.05,65.0
16.06,75.0
16.07,62.0
16.08,61.0
16.09,69.0
16.1,70.0
16.11,58.0
16.12,77.0
16.13,59.0
16.14,58.0
16.15,73.0
16.16,58.0
16.17,50.0
16.18,60.0
16.19,58.0
16.2,53.0
16.21,64.0
16.22,61.0
16.23,69.0
16.24,66.0
16.25,70.0
16.26,50.0
16.27,85.0
16.28,76.0
16.29,74.0
16.3,73.0
16.31,53.0
16.32,64.0
16.33,64.0
16.34,78.0
16.35,66.0
16.36,68.0
16.37,68.0
16.38,68.0
16.39,68.0
16.4,50.0
16.41,69.0
16.42,71.0
16.43,74.0
16.44,58.0
16.45,51.0
16.46,67.0
16.47,71.0
16.48,54.0
16.49,81.0
16.5,73.0
16.51,63.0
16.52,62.0
16.53,69.0
16.54,72.0
16.55,66.0
16.56,65.0
16.57,60.0
16.58,58.0
16.59,65.0
16.6,63.0
16.61,52.0
16.62,52.0
16.63,73.0
16.64,66.0
16.65,54.0
16.66,52.0
16.67,69.0
16.68,65.0
16.69,58.0
16.7,63.0
16.71,72.0
16.72,60.0
16.73,66.0
16.74,69.0
16.75,72.0
16.76,65.0
16.77,58.0
16.78,68.0
16.79,65.0
16.8,73.0
16.81,60.0
16.82,61.0
16.83,60.0
16.84,56.0
16.85,63.0
16.86,67.0
16.87,65.0
16.88,61.0
16.89,61.0
16.9,61.0
16.91,53.0
16.92,77.0
16.93,69.0
16.94,74.0
16.95,55.0
16.96,50.0
16.97,59.0
16.98,52.0
16.99,75.0
17.0,61.0
17.01,59.0
17.02,60.0
17.03,60.0
17.04,77.0
17.05,45.0
17.06,78.0
17.07,57.0
17.08,72.0
17.09,78.0
17.1,59.0
17.11,69.0
17.12,63.0
17.13,74.0
17.14,66.0
17.15,67.0
17.16,73.0
17.17,66.0
17.18,80.0
17.19,81.0
17.2,45.0
17.21,62.0
17.22,61.0
17.23,71.0
17.24,63.0
17.25,60.0
17.26,71.0
17.27,67.0
17.28,63.0
17.29,67.0
17.3,66.0
17.31,71.0
17.32,65.0
17.33,63.0
17.34,50.0
17.35,61.0
17.36,62.0
17.37,52.0
17.38,60.0
17.39,67.0
17.4,65.0
17.41,61.0
17.42,57.0
17.43,60.0
17.44,71.0
17.45,61.0
17.46,72.0
17.47,70.0
17.48,70.0
17.49,66.0
17.5,65.0
17.51,60.0
17.52,73.0
17.53,66.0
17.54,66.0
17.55,62.0
17.56,71.0
17.57,71.0
17.58,66.0
17.59,66.0
17.6,56.0
17.61,54.0
17.62,59.0
17.63,52.0
17.64,70.0
17.65,69.0
17.66,74.0
17.67,70.0
17.68,59.0
17.69,67.0
17.7,64.0
17.71,65.0
17.72,58.0
17.73,67.0
17.74,67.0
17.75,63.0
17.76,68.0
17.77,66.0
17.78,53.0
17.79,76.0
17.8,60.0
17.81,69.0
17.82,71.0
17.83,55.0
17.84,65.0
17.85,53.0
17.86,66.0
17.87,53.0
17.88,56.0
17.89,64.0
17.9,83.0
17.91,68.0
17.92,73.0
17.93,63.0
17.94,61.0
17.95,73.0
17.96,54.0
17.97,51.0
17.98,59.0
17.99,72.0
18.0,66.0
18.01,70.0
18.02,62.0
18.03,75.0
18.04,84.0
18.05,66.0
18.06,68.0
18.07,69.0
18.08,72.0
18.09,75.0
18.1,76.0
18.11,74.0
18.12,68.0
18.13,58.0
18.14,56.0
18.15,74.0
18.16,81.0
18.17,66.0
18.18,79.0
18.19,60.0
18.2,63.0
18.21,89.0
18.22,60.0
18.23,53.0
18.24,62.0
18.25,73.0
18.26,77.0
18.27,62.0
18.28,59.0
18.29,68.0
18.3,65.0
18.31,66.0
18.32,85.0
18.33,70.0
18.34,65.0
18.35,64.0
18.36,64.0
18.37,63.0
18.38,61.0
18.39,56.0
18.4,71.0
18.41,74.0
18.42,64.0
18.43,62.0
18.44,74.0
18.45,63.0
18.46,71.0
18.47,70.0
18.48,80.0
18.49,60.0
18.5,63.0
18.51,67.0
18.52,71.0
18.53,60.0
18.54,62.0
18.55,71.0
18.56,77.0
18.57,75.0
18.58,71.0
18.59,60.0
18.6,59.0
18.61,66.0
18.62,60.0
18.63,60.0
18.64,70.0
18.65,60.0
18.66,59.0
18.67,78.0
18.68,56.0
18.69,60.0
18.7,54.0
18.71,63.0
18.72,63.0
18.73,61.0
18.74,64.0
18.75,83.0
18.76,63.0
18.77,74.0
18.78,73.0
18.79,61.0
18.8,53.0
18.81,70.0
18.82,60.0
18.83,69.0
18.84,56.0
18.85,69.0
18.86,57.0
18.87,69.0
18.88,64.0
18.89,60.0
18.9,61.0
18.91,71.0
18.92,66.0
18.93,59.0
18.94,53.0
18.95,58.0
18.96,75.0
18.97,63.0
18.98,68.0
18.99,82.0
19.0,53.0
19.01,61.0
19.02,62.0
19.03,66.0
19.04,75.0
19.05,64.0
19.06,60.0
19.07,70.0
19.08,69.0
19.09,75.0
19.1,63.0
19.11,58.0
19.12,59.0
19.13,62.0
19.14,74.0
19.15,53.0
19.16,75.0
19.17,67.0
19.18,64.0
19.19,59.0
19.2,60.0
19.21,69.0
19.22,59.0
19.23,63.0
19.24,65.0
19.25,68.0
19.26,63.0
19.27,74.0
19.28,62.0
19.29,67.0
19.3,70.0
19.31,77.0
19.32,68.0
19.33,69.0
19.34,46.0
19.35,49.0
19.36,66.0
19.37,67.0
19.38,60.0
19.39,60.0
19.4,68.0
19.41,69.0
19.42,63.0
19.43,94.0
19.44,65.0
19.45,65.0
19.46,62.0
19.47,62.0
19.48,69.0
19.49,59.0
19.5,63.0
19.51,66.0
19.52,63.0
19.53,66.0
19.54,73.0
19.55,57.0
19.56,60.0
19.57,61.0
19.58,63.0
19.59,76.0
19.6,62.0
19.61,69.0
19.62,61.0
19.63,65.0
19.64,75.0
19.65,75.0
19.66,77.0
19.67,62.0
19.68,76.0
19.69,60.0
19.7,84.0
19.71,59.0
19.72,72.0
19.73,67.0
19.74,68.0
19.75,56.0
19.76,79.0
19.77,67.0
19.78,60.0
19.79,52.0
19.8,68.0
19.81,78.0
19.82,56.0
19.83,64.0
19.84,55.0
19.85,65.0
19.86,75.0
19.87,80.0
19.88,56.0
19.89,65.0
19.9,69.0
19.91,63.0
19.92,70.0
19.93,59.0
19.94,82.0
19.95,60.0
19.96,69.0
19.97,70.0
19.98,77.0
19.99,73.0
20.0,76.0
20.01,61.0
20.02,77.0
20.03,73.0
20.04,58.0
20.05,71.0
20.06,75.0
20.07,75.0
20.08,63.0
20.09,61.0
20.1,57.0
20.11,73.0
20.12,52.0
20.13,64.0
20.14,79.0
20.15,69.0
20.16,60.0
20.17,72.0
20.18,70.0
20.19,65.0
20.2,66.0
20.21,63.0
20.22,66.0
20.23,60.0
20.24,76.0
20.25,80.0
20.26,71.0
20.27,53.0
20.28,56.0
20.29,63.0
20.3,79.0
20.31,54.0
20.32,72.0
20.33,63.0
20.34,71.0
20.35,61.0
20.36,81.0
20.37,61.0
20.38,68.0
20.39,64.0
20.4,57.0
20.41,64.0
20.42,63.0
20.43,56.0
20.44,57.0
20.45,59.0
20.46,86.0
20.47,77.0
20.48,77.0
20.49,60.0
20.5,75.0
20.51,77.0
20.52,69.0
20.53,61.0
20.54,70.0
20.55,75.0
20.56,62.0
20.57,73.0
20.58,69.0
20.59,65.0
20.6,70.0
20.61,76.0
20.62,65.0
20.63,68.0
20.64,67.0
20.65,71.0
20.66,62.0
20.67,91.0
20.68,76.0
20.69,72.0
20.7,65.0
20.71,69.0
20.72,72.0
20.73,52.0
20.74,68.0
20.75,66.0
20.76,60.0
20.77,64.0
20.78,76.0
20.79,58.0
20.8,71.0
20.81,70.0
20.82,60.0
20.83,76.0
20.84,70.0
20.85,70.0
20.86,66.0
20.87,71.0
20.88,72.0
20.89,69.0
20.9,70.0
20.91,61.0
20.92,66.0
20.93,52.0
20.94,72.0
20.95,71.0
20.96,70.0
20.97,73.0
20.98,71.0
20.99,58.0
21.0,63.0
21.01,66.0
21.02,61.0
21.03,64.0
21.04,73.0
21.05,58.0
21.06,65.0
21.07,66.0
21.08,73.0
21.09,79.0
21.1,55.0
21.11,67.0
21.12,61.0
21.13,63.0
21.14,62.0
21.15,70.0
21.16,62.0
21.17,65.0
21.18,70.0
21.19,69.0
21.2,94.0
21.21,58.0
21.22,61.0
21.23,77.0
21.24,55.0
21.25,60.0
21.26,74.0
21.27,73.0
21.28,53.0
21.29,86.0
21.3,70.0
21.31,55.0
21.32,69.0
21.33,63.0
21.34,69.0
21.35,71.0
21.36,62.0
21.37,64.0
21.38,85.0
21.39,89.0
21.4,75.0
21.41,61.0
21.42,63.0
21.43,67.0
21.44,62.0
21.45,69.0
21.46,60.0
21.47,68.0
21.48,67.0
21.49,68.0
21.5,66.0
21.51,84.0
21.52,59.0
21.53,91.0
21.54,70.0
21.55,58.0
21.56,84.0
21.57,71.0
21.58,63.0
21.59,78.0
21.6,80.0
21.61,85.0
21.62,78.0
21.63,91.0
21.64,71.0
21.65,100.0
21.66,84.0
21.67,96.0
21.68,81.0
21.69,107.0
21.7,109.0
21.71,112.0
21.72,114.0
21.73,96.0
21.74,135.0
21.75,157.0
21.76,158.0
21.77,143.0
21.78,130.0
21.79,101.0
21.8,121.0
21.81,111.0
21.82,98.0
21.83,103.0
21.84,72.0
21.85,71.0
21.86,78.0
21.87,66.0
21.88,70.0
21.89,64.0
21.9,69.0
21.91,77.0
21.92,87.0
21.93,57.0
21.94,62.0
21.95,65.0
21.96,64.0
21.97,83.0
21.98,63.0
21.99,70.0
22.0,78.0
22.01,84.0
22.02,66.0
22.03,70.0
22.04,90.0
22.05,85.0
22.06,77.0
22.07,56.0
22.08,69.0
22.09,76.0
22.1,70.0
22.11,60.0
22.12,51.0
22.13,70.0
22.14,71.0
22.15,65.0
22.16,69.0
22.17,76.0
22.18,71.0
22.19,67.0
22.2,81.0
22.21,85.0
22.22,64.0
22.23,76.0
22.24,82.0
22.25,68.0
22.26,67.0
22.27,71.0
22.28,66.0
22.29,62.0
22.3,73.0
22.31,72.0
22.32,78.0
22.33,70.0
22.34,62.0
22.35,65.0
22.36,58.0
22.37,77.0
22.38,60.0
22.39,80.0
22.4,59.0
22.41,82.0
22.42,62.0
22.43,77.0
22.44,66.0
22.45,73.0
22.46,77.0
22.47,72.0
22.48,78.0
22.49,65.0
22.5,73.0
22.51,81.0
22.52,83.0
22.53,59.0
22.54,70.0
22.55,77.0
22.56,67.0
22.57,62.0
22.58,73.0
22.59,62.0
22.6,67.0
22.61,58.0
22.62,68.0
22.63,74.0
22.64,58.0
22.65,75.0
22.66,64.0
22.67,67.0
22.68,95.0
22.69,80.0
22.7,67.0
22.71,77.0
22.72,71.0
22.73,67.0
22.74,84.0
22.75,69.0
22.76,58.0
22.77,60.0
22.78,79.0
22.79,62.0
22.8,65.0
22.81,73.0
22.82,62.0
22.83,58.0
22.84,78.0
22.85,74.0
22.86,72.0
22.87,84.0
22.88,74.0
22.89,66.0
22.9,74.0
22.91,57.0
22.92,74.0
22.93,60.0
22.94,70.0
22.95,66.0
22.96,63.0
22.97,50.0
22.98,76.0
22.99,66.0
23.0,57.0
23.01,82.0
23.02,73.0
23.03,76.0
23.04,70.0
23.05,65.0
23.06,60.0
23.07,67.0
23.08,91.0
23.09,58.0
23.1,50.0
23.11,78.0
23.12,69.0
23.13,68.0
23.14,71.0
23.15,71.0
23.16,62.0
23.17,58.0
23.18,63.0
23.19,69.0
23.2,70.0
23.21,77.0
23.22,73.0
23.23,80.0
23.24,71.0
23.25,57.0
23.26,69.0
23.27,69.0
23.28,69.0
23.29,73.0
23.3,55.0
23.31,55.0
23.32,59.0
23.33,69.0
23.34,67.0
23.35,72.0
23.36,55.0
23.37,73.0
23.38,66.0
23.39,76.0
23.4,87.0
23.41,69.0
23.42,69.0
23.43,72.0
23.44,66.0
23.45,56.0
23.46,72.0
23.47,71.0
23.48,77.0
23.49,75.0
23.5,74.0
23.51,71.0
23.52,85.0
23.53,73.0
23.54,68.0
23.55,67.0
23.56,66.0
23.57,75.0
23.58,73.0
23.59,62.0
23.6,77.0
23.61,64.0
23.62,85.0
23.63,72.0
23.64,57.0
23.65,78.0
23.66,59.0
23.67,64.0
23.68,73.0
23.69,69.0
23.7,60.0
23.71,59.0
23.72,70.0
23.73,65.0
23.74,74.0
23.75,77.0
23.76,62.0
23.77,76.0
23.78,82.0
23.79,79.0
23.8,68.0
23.81,61.0
23.82,65.0
23.83,57.0
23.84,70.0
23.85,73.0
23.86,66.0
23.87,74.0
23.88,83.0
23.89,89.0
23.9,77.0
23.91,69.0
23.92,55.0
23.93,85.0
23.94,74.0
23.95,72.0
23.96,56.0
23.97,65.0
23.98,67.0
23.99,69.0
24.0,91.0
24.01,64.0
24.02,75.0
24.03,75.0
24.04,73.0
24.05,60.0
24.06,58.0
24.07,70.0
24.08,73.0
24.09,78.0
24.1,59.0
24.11,77.0
24.12,78.0
24.13,83.0
24.14,77.0
24.15,64.0
24.16,71.0
24.17,74.0
24.18,69.0
24.19,73.0
24.2,64.0
24.21,72.0
24.22,61.0
24.23,90.0
24.24,68.0
24.25,62.0
24.26,57.0
24.27,92.0
24.28,70.0
24.29,78.0
24.3,80.0
24.31,73.0
24.32,71.0
24.33,59.0
24.34,75.0
24.35,57.0
24.36,80.0
24.37,73.0
24.38,58.0
24.39,56.0
24.4,65.0
24.41,81.0
24.42,66.0
24.43,62.0
24.44,61.0
24.45,55.0
24.46,92.0
24.47,58.0
24.48,63.0
24.49,73.0
24.5,84.0
24.51,65.0
24.52,70.0
24.53,78.0
24.54,70.0
24.55,70.0
24.56,74.0
24.57,66.0
24.58,55.0
24.59,73.0
24.6,86.0
24.61,68.0
24.62,73.0
24.63,66.0
24.64,86.0
24.65,71.0
24.66,75.0
24.67,78.0
24.68,75.0
24.69,78.0
24.7,63.0
24.71,60.0
24.72,72.0
24.73,74.0
24.74,77.0
24.75,70.0
24.76,67.0
24.77,85.0
24.78,63.0
24.79,67.0
24.8,72.0
24.81,75.0
24.82,65.0
24.83,72.0
24.84,76.0
24.85,90.0
24.86,70.0
24.87,54.0
24.88,70.0
24.89,74.0
24.9,80.0
24.91,70.0
24.92,71.0
24.93,82.0
24.94,61.0
24.95,72.0
24.96,80.0
24.97,83.0
24.98,57.0
24.99,65.0
25.0,73.0
25.01,69.0
25.02,64.0
25.03,65.0
25.04,71.0
25.05,74.0
25.06,60.0
25.07,72.0
25.08,65.0
25.09,69.0
25.1,76.0
25.11,70.0
25.12,51.0
25.13,58.0
25.14,73.0
25.15,55.0
25.16,96.0
25.17,61.0
25.18,78.0
25.19,67.0
25.2,74.0
25.21,74.0
25.22,70.0
25.23,68.0
25.24,75.0
25.25,74.0
25.26,68.0
25.27,63.0
25.28,83.0
25.29,71.0
25.3,64.0
25.31,77.0
25.32,76.0
25.33,58.0
25.34,79.0
25.35,68.0
25.36,64.0
25.37,74.0
25.38,59.0
25.39,65.0
25.4,68.0
25.41,80.0
25.42,72.0
25.43,75.0
25.44,73.0
25.45,84.0
25.46,64.0
25.47,82.0
25.48,71.0
25.49,72.0
25.5,80.0
25.51,85.0
25.52,74.0
25.53,66.0
25.54,71.0
25.55,79.0
25.56,97.0
25.57,79.0
25.58,62.0
25.59,75.0
25.6,67.0
25.61,69.0
25.62,81.0
25.63,79.0
25.64,75.0
25.65,78.0
25.66,85.0
25.67,72.0
25.68,68.0
25.69,63.0
25.7,78.0
25.71,54.0
25.72,69.0
25.73,86.0
25.74,73.0
25.75,65.0
25.76,77.0
25.77,81.0
25.78,73.0
25.79,79.0
25.8,77.0
25.81,79.0
25.82,77.0
25.83,70.0
25.84,66.0
25.85,65.0
25.86,82.0
25.87,67.0
25.88,70.0
25.89,87.0
25.9,95.0
25.91,77.0
25.92,76.0
25.93,86.0
25.94,63.0
25.95,76.0
25.96,65.0
25.97,80.0
25.98,68.0
25.99,63.0
26.0,72.0
26.01,68.0
26.02,63.0
26.03,82.0
26.04,74.0
26.05,74.0
26.06,80.0
26.07,77.0
26.08,67.0
26.09,70.0
26.1,78.0
26.11,74.0
26.12,69.0
26.13,55.0
26.14,73.0
26.15,67.0
26.16,78.0
26.17,67.0
26.18,78.0
26.19,67.0
26.2,66.0
26.21,79.0
26.22,72.0
26.23,103.0
26.24,81.0
26.25,62.0
26.26,76.0
26.27,70.0
26.28,91.0
26.29,84.0
26.3,61.0
26.31,62.0
26.32,66.0
26.33,58.0
26.34,52.0
26.35,67.0
26.36,78.0
26.37,94.0
26.38,66.0
26.39,69.0
26.4,75.0
26.41,86.0
26.42,72.0
26.43,61.0
26.44,76.0
26.45,77.0
26.46,75.0
26.47,67.0
26.48,74.0
26.49,71.0
26.5,76.0
26.51,93.0
26.52,100.0
26.53,76.0
26.54,72.0
26.55,77.0
26.56,85.0
26.57,103.0
26.58,112.0
26.59,120.0
26.6,125.0
26.61,121.0
26.62,114.0
26.63,157.0
26.64,140.0
26.65,185.0
26.66,176.0
26.67,150.0
26.68,148.0
26.69,166.0
26.7,172.0
26.71,157.0
26.72,141.0
26.73,120.0
26.74,130.0
26.75,108.0
26.76,100.0
26.77,123.0
26.78,99.0
26.79,96.0
26.8,94.0
26.81,91.0
26.82,77.0
26.83,95.0
26.84,59.0
26.85,88.0
26.86,81.0
26.87,89.0
26.88,88.0
26.89,71.0
26.9,81.0
26.91,74.0
26.92,67.0
26.93,81.0
26.94,64.0
26.95,85.0
26.96,75.0
26.97,86.0
26.98,69.0
26.99,81.0
27.0,62.0
27.01,71.0
27.02,72.0
27.03,67.0
27.04,74.0
27.05,69.0
27.06,66.0
27.07,72.0
27.08,83.0
27.09,76.0
27.1,76.0
27.11,94.0
27.12,76.0
27.13,86.0
27.14,82.0
27.15,62.0
27.16,79.0
27.17,82.0
27.18,70.0
27.19,88.0
27.2,83.0
27.21,70.0
27.22,67.0
27.23,79.0
27.24,69.0
27.25,78.0
27.26,80.0
27.27,83.0
27.28,85.0
27.29,74.0
27.3,83.0
27.31,72.0
27.32,81.0
27.33,62.0
27.34,63.0
27.35,71.0
27.36,83.0
27.37,71.0
27.38,68.0
27.39,76.0
27.4,74.0
27.41,79.0
27.42,78.0
27.43,65.0
27.44,73.0
27.45,92.0
27.46,66.0
27.47,68.0
27.48,76.0
27.49,74.0
27.5,75.0
27.51,82.0
27.52,81.0
27.53,79.0
27.54,91.0
27.55,91.0
27.56,68.0
27.57,74.0
27.58,80.0
27.59,71.0
27.6,70.0
27.61,80.0
27.62,73.0
27.63,79.0
27.64,75.0
27.65,84.0
27.66,84.0
27.67,84.0
27.68,74.0
27.69,64.0
27.7,81.0
27.71,68.0
27.72,86.0
27.73,68.0
27.74,83.0
27.75,58.0
27.76,86.0
27.77,76.0
27.78,67.0
27.79,79.0
27.8,71.0
27.81,82.0
27.82,65.0
27.83,73.0
27.84,84.0
27.85,85.0
27.86,76.0
27.87,78.0
27.88,71.0
27.89,98.0
27.9,72.0
27.91,85.0
27.92,69.0
27.93,82.0
27.94,70.0
27.95,69.0
27.96,61.0
27.97,81.0
27.98,73.0
27.99,83.0
28.0,60.0
28.01,70.0
28.02,88.0
28.03,85.0
28.04,80.0
28.05,80.0
28.06,66.0
28.07,66.0
28.08,78.0
28.09,73.0
28.1,63.0
28.11,74.0
28.12,81.0
28.13,75.0
28.14,78.0
28.15,74.0
28.16,67.0
28.17,74.0
28.18,75.0
28.19,65.0
28.2,78.0
28.21,70.0
28.22,63.0
28.23,68.0
28.24,84.0
28.25,97.0
28.26,73.0
28.27,62.0
28.28,64.0
28.29,74.0
28.3,74.0
28.31,77.0
28.32,73.0
28.33,86.0
28.34,71.0
28.35,93.0
28.36,81.0
28.37,77.0
28.38,73.0
28.39,82.0
28.4,80.0
28.41,72.0
28.42,71.0
28.43,84.0
28.44,66.0
28.45,68.0
28.46,80.0
28.47,79.0
28.48,75.0
28.49,77.0
28.5,92.0
28.51,75.0
28.52,81.0
28.53,82.0
28.54,90.0
28.55,69.0
28.56,75.0
28.57,79.0
28.58,75.0
28.59,81.0
28.6,70.0
28.61,88.0
28.62,66.0
28.63,79.0
28.64,73.0
28.65,82.0
28.66,79.0
28.67,80.0
28.68,74.0
28.69,78.0
28.7,73.0
28.71,84.0
28.72,72.0
28.73,72.0
28.74,77.0
28.75,70.0
28.76,82.0
28.77,79.0
28.78,65.0
28.79,73.0
28.8,76.0
28.81,90.0
28.82,82.0
28.83,88.0
28.84,70.0
28.85,104.0
28.86,82.0
28.87,95.0
28.88,79.0
28.89,62.0
28.9,78.0
28.91,71.0
28.92,88.0
28.93,73.0
28.94,69.0
28.95,82.0
28.96,74.0
28.97,70.0
28.98,81.0
28.99,81.0
29.0,91.0
29.01,71.0
29.02,75.0
29.03,75.0
29.04,66.0
29.05,78.0
29.06,80.0
29.07,68.0
29.08,64.0
29.09,70.0
29.1,77.0
29.11,75.0
29.12,80.0
29.13,78.0
29.14,73.0
29.15,82.0
29.16,62.0
29.17,77.0
29.18,86.0
29.19,69.0
29.2,93.0
29.21,88.0
29.22,75.0
29.23,73.0
29.24,71.0
29.25,79.0
29.26,66.0
29.27,55.0
29.28,86.0
29.29,75.0
29.3,76.0
29.31,73.0
29.32,81.0
29.33,88.0
29.34,75.0
29.35,62.0
29.36,93.0
29.37,68.0
29.38,87.0
29.39,76.0
29.4,76.0
29.41,71.0
29.42,64.0
29.43,84.0
29.44,77.0
29.45,86.0
29.46,81.0
29.47,105.0
29.48,100.0
29.49,117.0
29.5,109.0
29.51,90.0
29.52,79.0
29.53,68.0
29.54,97.0
29.55,109.0
29.56,87.0
29.57,97.0
29.58,94.0
29.59,89.0
29.6,88.0
29.61,88.0
29.62,86.0
29.63,82.0
29.64,84.0
29.65,74.0
29.66,89.0
29.67,65.0
29.68,71.0
29.69,74.0
29.7,73.0
29.71,76.0
29.72,79.0
29.73,81.0
29.74,77.0
29.75,96.0
29.76,69.0
29.77,77.0
29.78,78.0
29.79,77.0
29.8,70.0
29.81,76.0
29.82,63.0
29.83,84.0
29.84,66.0
29.85,72.0
29.86,63.0
29.87,83.0
29.88,71.0
29.89,63.0
29.9,78.0
29.91,64.0
29.92,64.0
29.93,75.0
29.94,69.0
29.95,74.0
29.96,79.0
29.97,67.0
29.98,83.0
29.99,69.0
30.0,78.0
30.01,61.0
30.02,77.0
30.03,70.0
30.04,58.0
30.05,76.0
30.06,69.0
30.07,65.0
30.08,69.0
30.09,72.0
30.1,74.0
30.11,80.0
30.12,87.0
30.13,88.0
30.14,75.0
30.15,62.0
30.16,82.0
30.17,64.0
30.18,79.0
30.19,69.0
30.2,82.0
30.21,71.0
30.22,70.0
30.23,83.0
30.24,71.0
30.25,70.0
30.26,84.0
30.27,73.0
30.28,78.0
30.29,79.0
30.3,77.0
30.31,75.0
30.32,76.0
30.33,83.0
30.34,77.0
30.35,63.0
30.36,71.0
30.37,73.0
30.38,64.0
30.39,84.0
30.4,73.0
30.41,84.0
30.42,81.0
30.43,71.0
30.44,87.0
30.45,76.0
30.46,83.0
30.47,61.0
30.48,68.0
30.49,100.0
30.5,78.0
30.51,59.0
30.52,68.0
30.53,77.0
30.54,71.0
30.55,81.0
30.56,79.0
30.57,79.0
30.58,76.0
30.59,69.0
30.6,68.0
30.61,51.0
30.62,98.0
30.63,77.0
30.64,75.0
30.65,80.0
30.66,81.0
30.67,78.0
30.68,77.0
30.69,79.0
30.7,95.0
30.71,64.0
30.72,75.0
30.73,78.0
30.74,84.0
30.75,83.0
30.76,76.0
30.77,89.0
30.78,78.0
30.79,91.0
30.8,80.0
30.81,93.0
30.82,88.0
30.83,70.0
30.84,82.0
30.85,80.0
30.86,86.0
30.87,76.0
30.88,89.0
30.89,94.0
30.9,80.0
30.91,79.0
30.92,79.0
30.93,72.0
30.94,88.0
30.95,64.0
30.96,85.0
30.97,75.0
30.98,74.0
30.99,72.0
31.0,71.0
31.01,83.0
31.02,79.0
31.03,79.0
31.04,75.0
31.05,85.0
31.06,96.0
31.07,73.0
31.08,67.0
31.09,91.0
31.1,76.0
31.11,82.0
31.12,84.0
31.13,74.0
31.14,85.0
31.15,86.0
31.16,85.0
31.17,67.0
31.18,89.0
31.19,85.0
31.2,87.0
31.21,93.0
31.22,69.0
31.23,92.0
31.24,84.0
31.25,63.0
31.26,98.0
31.27,87.0
31.28,67.0
31.29,89.0
31.3,85.0
31.31,85.0
31.32,77.0
31.33,74.0
31.34,70.0
31.35,63.0
31.36,75.0
31.37,65.0
31.38,86.0
31.39,60.0
31.4,84.0
31.41,68.0
31.42,81.0
31.43,60.0
31.44,64.0
31.45,78.0
31.46,61.0
31.47,68.0
31.48,79.0
31.49,80.0
31.5,84.0
31.51,81.0
31.52,73.0
31.53,61.0
31.54,61.0
31.55,71.0
31.56,66.0
31.57,65.0
31.58,81.0
31.59,70.0
31.6,77.0
31.61,82.0
31.62,76.0
31.63,75.0
31.64,56.0
31.65,73.0
31.66,67.0
31.67,68.0
31.68,67.0
31.69,71.0
31.7,81.0
31.71,79.0
31.72,77.0
31.73,71.0
31.74,92.0
31.75,86.0
31.76,71.0
31.77,71.0
31.78,84.0
31.79,82.0
31.8,90.0
31.81,87.0
31.82,69.0
31.83,84.0
31.84,80.0
31.85,87.0
31.86,78.0
31.87,68.0
31.88,73.0
31.89,57.0
31.9,73.0
31.91,66.0
31.92,94.0
31.93,75.0
31.94,77.0
31.95,68.0
31.96,75.0
31.97,84.0
31.98,71.0
31.99,77.0
32.0,77.0
32.01,89.0
32.02,82.0
32.03,67.0
32.04,75.0
32.05,88.0
32.06,73.0
32.07,81.0
32.08,78.0
32.09,64.0
32.1,64.0
32.11,76.0
32.12,73.0
32.13,71.0
32.14,74.0
32.15,72.0
32.16,74.0
32.17,70.0
32.18,85.0
32.19,86.0
32.2,72.0
32.21,93.0
32.22,81.0
32.23,67.0
32.24,82.0
32.25,69.0
32.26,85.0
32.27,78.0
32.28,83.0
32.29,82.0
32.3,70.0
32.31,83.0
32.32,69.0
32.33,72.0
32.34,69.0
32.35,74.0
32.36,64.0
32.37,76.0
32.38,57.0
32.39,93.0
32.4,74.0
32.41,66.0
32.42,95.0
32.43,70.0
32.44,80.0
32.45,83.0
32.46,67.0
32.47,72.0
32.48,85.0
32.49,90.0
32.5,97.0
32.51,74.0
32.52,85.0
32.53,79.0
32.54,71.0
32.55,83.0
32.56,55.0
32.57,82.0
32.58,91.0
32.59,84.0
32.6,85.0
32.61,70.0
32.62,73.0
32.63,87.0
32.64,86.0
32.65,77.0
32.66,89.0
32.67,85.0
32.68,80.0
32.69,79.0
32.7,67.0
32.71,79.0
32.72,85.0
32.73,83.0
32.74,69.0
32.75,88.0
32.76,70.0
32.77,79.0
32.78,73.0
32.79,92.0
32.8,80.0
32.81,83.0
32.82,79.0
32.83,68.0
32.84,73.0
32.85,71.0
32.86,88.0
32.87,61.0
32.88,77.0
32.89,76.0
32.9,66.0
32.91,89.0
32.92,83.0
32.93,60.0
32.94,88.0
32.95,93.0
32.96,93.0
32.97,80.0
32.98,83.0
32.99,81.0
33.0,71.0
33.01,72.0
33.02,77.0
33.03,80.0
33.04,91.0
33.05,84.0
33.06,74.0
33.07,88.0
33.08,66.0
33.09,70.0
33.1,70.0
33.11,78.0
33.12,80.0
33.13,70.0
33.14,85.0
33.15,76.0
33.16,78.0
33.17,80.0
33.18,73.0
33.19,86.0
33.2,90.0
33.21,79.0
33.22,79.0
33.23,61.0
33.24,72.0
33.25,72.0
33.26,77.0
33.27,78.0
33.28,95.0
33.29,78.0
33.3,91.0
33.31,74.0
33.32,86.0
33.33,79.0
33.34,60.0
33.35,81.0
33.36,89.0
33.37,83.0
33.38,74.0
33.39,82.0
33.4,103.0
33.41,86.0
33.42,71.0
33.43,83.0
33.44,80.0
33.45,85.0
33.46,81.0
33.47,85.0
33.48,82.0
33.49,80.0
33.5,66.0
33.51,84.0
33.52,68.0
33.53,90.0
33.54,81.0
33.55,84.0
33.56,86.0
33.57,76.0
33.58,80.0
33.59,80.0
33.6,70.0
33.61,93.0
33.62,81.0
33.63,78.0
33.64,86.0
33.65,86.0
33.66,84.0
33.67,76.0
33.68,74.0
33.69,78.0
33.7,80.0
33.71,92.0
33.72,92.0
33.73,72.0
33.74,81.0
33.75,74.0
33.76,90.0
33.77,79.0
33.78,73.0
33.79,74.0
33.8,74.0
33.81,92.0
33.82,80.0
33.83,82.0
33.84,81.0
33.85,75.0
33.86,82.0
33.87,70.0
33.88,76.0
33.89,85.0
33.9,81.0
33.91,73.0
33.92,86.0
33.93,88.0
33.94,79.0
33.95,69.0
33.96,86.0
33.97,89.0
33.98,93.0
33.99,85.0
34.0,80.0
34.01,85.0
34.02,83.0
34.03,75.0
34.04,86.0
34.05,80.0
34.06,85.0
34.07,63.0
34.08,87.0
34.09,91.0
34.1,88.0
34.11,79.0
34.12,96.0
34.13,77.0
34.14,74.0
34.15,80.0
34.16,77.0
34.17,75.0
34.18,83.0
34.19,83.0
34.2,81.0
34.21,88.0
34.22,86.0
34.23,66.0
34.24,89.0
34.25,91.0
34.26,83.0
34.27,79.0
34.28,88.0
34.29,86.0
34.3,93.0
34.31,87.0
34.32,98.0
34.33,97.0
34.34,92.0
34.35,94.0
34.36,104.0
34.37,109.0
34.38,119.0
34.39,135.0
34.4,138.0
34.41,163.0
34.42,131.0
34.43,153.0
34.44,155.0
34.45,164.0
34.46,185.0
34.47,197.0
34.48,243.0
34.49,230.0
34.5,259.0
34.51,293.0
34.52,337.0
34.53,421.0
34.54,398.0
34.55,430.0
34.56,428.0
34.57,443.0
34.58,507.0
34.59,570.0
34.6,638.0
34.61,718.0
34.62,733.0
34.63,701.0
34.64,632.0
34.65,573.0
34.66,507.0
34.67,480.0
34.68,525.0
34.69,529.0
34.7,487.0
34.71,412.0
34.72,383.0
34.73,335.0
34.74,294.0
34.75,283.0
34.76,213.0
34.77,205.0
34.78,196.0
34.79,180.0
34.8,168.0
34.81,134.0
34.82,112.0
34.83,126.0
34.84,115.0
34.85,107.0
34.86,86.0
34.87,97.0
34.88,105.0
34.89,92.0
34.9,97.0
34.91,99.0
34.92,98.0
34.93,105.0
34.94,105.0
34.95,89.0
34.96,97.0
34.97,80.0
34.98,88.0
34.99,91.0
35.0,96.0
35.01,94.0
35.02,84.0
35.03,84.0
35.04,89.0
35.05,82.0
35.06,85.0
35.07,84.0
35.08,84.0
35.09,74.0
35.1,82.0
35.11,81.0
35.12,99.0
35.13,94.0
35.14,67.0
35.15,80.0
35.16,76.0
35.17,77.0
35.18,93.0
35.19,82.0
35.2,84.0
35.21,89.0
35.22,78.0
35.23,89.0
35.24,82.0
35.25,83.0
35.26,77.0
35.27,81.0
35.28,77.0
35.29,70.0
35.3,65.0
35.31,85.0
35.32,81.0
35.33,73.0
35.34,75.0
35.35,98.0
35.36,81.0
35.37,74.0
35.38,69.0
35.39,72.0
35.4,68.0
35.41,94.0
35.42,83.0
35.43,86.0
35.44,85.0
35.45,79.0
35.46,61.0
35.47,78.0
35.48,84.0
35.49,77.0
35.5,77.0
35.51,84.0
35.52,82.0
35.53,86.0
35.54,67.0
35.55,81.0
35.56,77.0
35.57,87.0
35.58,78.0
35.59,73.0
35.6,93.0
35.61,72.0
35.62,83.0
35.63,83.0
35.64,95.0
35.65,81.0
35.66,89.0
35.67,68.0
35.68,85.0
35.69,74.0
35.7,65.0
35.71,78.0
35.72,77.0
35.73,91.0
35.74,75.0
35.75,69.0
35.76,80.0
35.77,82.0
35.78,75.0
35.79,80.0
35.8,83.0
35.81,67.0
35.82,78.0
35.83,95.0
35.84,76.0
35.85,66.0
35.86,80.0
35.87,65.0
35.88,88.0
35.89,80.0
35.9,69.0
35.91,71.0
35.92,83.0
35.93,94.0
35.94,87.0
35.95,75.0
35.96,83.0
35.97,79.0
35.98,86.0
35.99,77.0
36.0,84.0
36.01,55.0
36.02,89.0
36.03,77.0
36.04,72.0
36.05,80.0
36.06,80.0
36.07,85.0
36.08,58.0
36.09,78.0
36.1,70.0
36.11,83.0
36.12,81.0
36.13,81.0
36.14,76.0
36.15,88.0
36.16,78.0
36.17,78.0
36.18,67.0
36.19,79.0
36.2,84.0
36.21,96.0
36.22,61.0
36.23,79.0
36.24,92.0
36.25,62.0
36.26,79.0
36.27,79.0
36.28,93.0
36.29,73.0
36.3,73.0
36.31,84.0
36.32,94.0
36.33,72.0
36.34,85.0
36.35,83.0
36.36,84.0
36.37,62.0
36.38,79.0
36.39,90.0
36.4,80.0
36.41,88.0
36.42,76.0
36.43,74.0
36.44,68.0
36.45,65.0
36.46,80.0
36.47,76.0
36.48,84.0
36.49,92.0
36.5,82.0
36.51,84.0
36.52,81.0
36.53,81.0
36.54,89.0
36.55,80.0
36.56,90.0
36.57,75.0
36.58,95.0
36.59,86.0
36.6,66.0
36.61,92.0
36.62,89.0
36.63,77.0
36.64,73.0
36.65,90.0
36.66,82.0
36.67,97.0
36.68,86.0
36.69,62.0
36.7,87.0
36.71,78.0
36.72,88.0
36.73,81.0
36.74,72.0
36.75,77.0
36.76,79.0
36.77,85.0
36.78,94.0
36.79,73.0
36.8,84.0
36.81,89.0
36.82,83.0
36.83,72.0
36.84,91.0
36.85,73.0
36.86,84.0
36.87,79.0
36.88,75.0
36.89,72.0
36.9,87.0
36.91,83.0
36.92,68.0
36.93,75.0
36.94,63.0
36.95,79.0
36.96,75.0
36.97,89.0
36.98,88.0
36.99,61.0
37.0,81.0
37.01,81.0
37.02,89.0
37.03,98.0
37.04,87.0
37.05,93.0
37.06,87.0
37.07,92.0
37.08,91.0
37.09,95.0
37.1,89.0
37.11,89.0
37.12,89.0
37.13,92.0
37.14,66.0
37.15,75.0
37.16,85.0
37.17,71.0
37.18,81.0
37.19,78.0
37.2,101.0
37.21,84.0
37.22,81.0
37.23,94.0
37.24,83.0
37.25,86.0
37.26,78.0
37.27,91.0
37.28,98.0
37.29,85.0
37.3,75.0
37.31,74.0
37.32,76.0
37.33,95.0
37.34,78.0
37.35,79.0
37.36,75.0
37.37,77.0
37.38,69.0
37.39,78.0
37.4,88.0
37.41,73.0
37.42,79.0
37.43,79.0
37.44,77.0
37.45,84.0
37.46,91.0
37.47,78.0
37.48,77.0
37.49,78.0
37.5,80.0
37.51,82.0
37.52,63.0
37.53,81.0
37.54,89.0
37.55,85.0
37.56,73.0
37.57,86.0
37.58,76.0
37.59,81.0
37.6,80.0
37.61,89.0
37.62,98.0
37.63,89.0
37.64,77.0
37.65,76.0
37.66,91.0
37.67,88.0
37.68,77.0
37.69,77.0
37.7,72.0
37.71,86.0
37.72,93.0
37.73,74.0
37.74,92.0
37.75,95.0
37.76,72.0
37.77,82.0
37.78,81.0
37.79,73.0
37.8,77.0
37.81,84.0
37.82,81.0
37.83,66.0
37.84,92.0
37.85,77.0
37.86,79.0
37.87,76.0
37.88,81.0
37.89,73.0
37.9,79.0
37.91,74.0
37.92,93.0
37.93,91.0
37.94,87.0
37.95,87.0
37.96,75.0
37.97,89.0
37.98,93.0
37.99,99.0
38.0,95.0
38.01,71.0
38.02,93.0
38.03,93.0
38.04,96.0
38.05,96.0
38.06,94.0
38.07,91.0
38.08,98.0
38.09,96.0
38.1,84.0
38.11,72.0
38.12,98.0
38.13,86.0
38.14,76.0
38.15,96.0
38.16,89.0
38.17,78.0
38.18,86.0
38.19,80.0
38.2,74.0
38.21,83.0
38.22,73.0
38.23,74.0
38.24,94.0
38.25,80.0
38.26,71.0
38.27,94.0
38.28,80.0
38.29,79.0
38.3,80.0
38.31,86.0
38.32,87.0
38.33,87.0
38.34,77.0
38.35,96.0
38.36,85.0
38.37,93.0
38.38,87.0
38.39,84.0
38.4,97.0
38.41,97.0
38.42,66.0
38.43,82.0
38.44,86.0
38.45,65.0
38.46,65.0
38.47,96.0
38.48,94.0
38.49,71.0
38.5,78.0
38.51,101.0
38.52,82.0
38.53,71.0
38.54,88.0
38.55,76.0
38.56,83.0
38.57,66.0
38.58,86.0
38.59,78.0
38.6,72.0
38.61,84.0
38.62,82.0
38.63,95.0
38.64,77.0
38.65,86.0
38.66,80.0
38.67,93.0
38.68,81.0
38.69,84.0
38.7,89.0
38.71,78.0
38.72,75.0
38.73,74.0
38.74,81.0
38.75,77.0
38.76,92.0
38.77,76.0
38.78,71.0
38.79,71.0
38.8,74.0
38.81,79.0
38.82,102.0
38.83,77.0
38.84,82.0
38.85,71.0
38.86,83.0
38.87,76.0
38.88,84.0
38.89,81.0
38.9,83.0
38.91,82.0
38.92,85.0
38.93,86.0
38.94,75.0
38.95,65.0
38.96,87.0
38.97,62.0
38.98,94.0
38.99,76.0
39.0,82.0
39.01,78.0
39.02,72.0
39.03,66.0
39.04,72.0
39.05,68.0
39.06,59.0
39.07,99.0
39.08,85.0
39.09,79.0
39.1,86.0
39.11,80.0
39.12,69.0
39.13,79.0
39.14,96.0
39.15,99.0
39.16,87.0
39.17,90.0
39.18,85.0
39.19,85.0
39.2,67.0
39.21,76.0
39.22,93.0
39.23,84.0
39.24,83.0
39.25,87.0
39.26,82.0
39.27,81.0
39.28,71.0
39.29,87.0
39.3,85.0
39.31,90.0
39.32,78.0
39.33,94.0
39.34,90.0
39.35,79.0
39.36,85.0
39.37,81.0
39.38,70.0
39.39,81.0
39.4,81.0
39.41,81.0
39.42,80.0
39.43,68.0
39.44,88.0
39.45,71.0
39.46,70.0
39.47,91.0
39.48,85.0
39.49,66.0
39.5,83.0
39.51,92.0
39.52,92.0
39.53,68.0
39.54,95.0
39.55,85.0
39.56,75.0
39.57,71.0
39.58,71.0
39.59,88.0
39.6,111.0
39.61,64.0
39.62,80.0
39.63,89.0
39.64,82.0
39.65,95.0
39.66,81.0
39.67,92.0
39.68,73.0
39.69,78.0
39.7,79.0
39.71,70.0
39.72,77.0
39.73,76.0
39.74,81.0
39.75,81.0
39.76,64.0
39.77,103.0
39.78,88.0
39.79,80.0
39.8,91.0
39.81,85.0
39.82,77.0
39.83,87.0
39.84,75.0
39.85,83.0
39.86,80.0
39.87,82.0
39.88,75.0
39.89,93.0
39.9,84.0
39.91,60.0
39.92,79.0
39.93,84.0
39.94,84.0
39.95,77.0
39.96,86.0
39.97,90.0
39.98,77.0
39.99,77.0
40.0,77.0
40.01,81.0
40.02,73.0
40.03,87.0
40.04,75.0
40.05,78.0
40.06,84.0
40.07,76.0
40.08,75.0
40.09,83.0
40.1,90.0
40.11,78.0
40.12,90.0
40.13,75.0
40.14,93.0
40.15,81.0
40.16,84.0
40.17,83.0
40.18,68.0
40.19,79.0
40.2,74.0
40.21,82.0
40.22,83.0
40.23,80.0
40.24,75.0
40.25,100.0
40.26,73.0
40.27,69.0
40.28,74.0
40.29,86.0
40.3,60.0
40.31,85.0
40.32,76.0
40.33,71.0
40.34,91.0
40.35,84.0
40.36,97.0
40.37,82.0
40.38,95.0
40.39,72.0
40.4,87.0
40.41,80.0
40.42,90.0
40.43,52.0
40.44,78.0
40.45,96.0
40.46,79.0
40.47,84.0
40.48,76.0
40.49,78.0
40.5,73.0
40.51,83.0
40.52,73.0
40.53,69.0
40.54,88.0
40.55,89.0
40.56,88.0
40.57,104.0
40.58,72.0
40.59,79.0
40.6,75.0
40.61,86.0
40.62,83.0
40.63,93.0
40.64,74.0
40.65,99.0
40.66,84.0
40.67,75.0
40.68,94.0
40.69,74.0
40.7,72.0
40.71,70.0
40.72,74.0
40.73,83.0
40.74,79.0
40.75,69.0
40.76,92.0
40.77,70.0
40.78,85.0
40.79,86.0
40.8,87.0
40.81,70.0
40.82,80.0
40.83,91.0
40.84,74.0
40.85,98.0
40.86,89.0
40.87,80.0
40.88,81.0
40.89,87.0
40.9,93.0
40.91,94.0
40.92,98.0
40.93,104.0
40.94,107.0
40.95,78.0
40.96,93.0
40.97,99.0
40.98,120.0
40.99,112.0
41.0,131.0
41.01,108.0
41.02,130.0
41.03,152.0
41.04,151.0
41.05,158.0
41.06,170.0
41.07,133.0
41.08,161.0
41.09,147.0
41.1,199.0
41.11,223.0
41.12,224.0
41.13,253.0
41.14,285.0
41.15,309.0
41.16,370.0
41.17,427.0
41.18,365.0
41.19,330.0
41.2,326.0
41.21,270.0
41.22,274.0
41.23,318.0
41.24,293.0
41.25,265.0
41.26,275.0
41.27,284.0
41.28,268.0
41.29,278.0
41.3,209.0
41.31,196.0
41.32,218.0
41.33,174.0
41.34,163.0
41.35,159.0
41.36,128.0
41.37,124.0
41.38,134.0
41.39,114.0
41.4,107.0
41.41,101.0
41.42,91.0
41.43,91.0
41.44,95.0
41.45,110.0
41.46,95.0
41.47,81.0
41.48,94.0
41.49,86.0
41.5,81.0
41.51,92.0
41.52,83.0
41.53,85.0
41.54,98.0
41.55,94.0
41.56,79.0
41.57,83.0
41.58,87.0
41.59,88.0
41.6,76.0
41.61,93.0
41.62,99.0
41.63,97.0
41.64,83.0
41.65,72.0
41.66,67.0
41.67,85.0
41.68,66.0
41.69,90.0
41.7,81.0
41.71,84.0
41.72,91.0
41.73,93.0
41.74,81.0
41.75,84.0
41.76,73.0
41.77,86.0
41.78,88.0
41.79,75.0
41.8,88.0
41.81,97.0
41.82,85.0
41.83,83.0
41.84,84.0
41.85,84.0
41.86,87.0
41.87,90.0
41.88,93.0
41.89,70.0
41.9,63.0
41.91,96.0
41.92,72.0
41.93,88.0
41.94,87.0
41.95,60.0
41.96,98.0
41.97,80.0
41.98,88.0
41.99,91.0
42.0,77.0
42.01,71.0
42.02,73.0
42.03,84.0
42.04,85.0
42.05,108.0
42.06,83.0
42.07,88.0
42.08,68.0
42.09,99.0
42.1,92.0
42.11,76.0
42.12,80.0
42.13,88.0
42.14,93.0
42.15,91.0
42.16,80.0
42.17,81.0
42.18,97.0
42.19,77.0
42.2,77.0
42.21,70.0
42.22,56.0
42.23,79.0
42.24,93.0
42.25,85.0
42.26,83.0
42.27,75.0
42.28,93.0
42.29,83.0
42.3,79.0
42.31,84.0
42.32,91.0
42.33,85.0
42.34,81.0
42.35,70.0
42.36,75.0
42.37,85.0
42.38,75.0
42.39,63.0
42.4,93.0
42.41,82.0
42.42,77.0
42.43,79.0
42.44,82.0
42.45,67.0
42.46,71.0
42.47,70.0
42.48,90.0
42.49,74.0
42.5,71.0
42.51,87.0
42.52,81.0
42.53,80.0
42.54,95.0
42.55,70.0
42.56,84.0
42.57,73.0
42.58,90.0
42.59,95.0
42.6,82.0
42.61,80.0
42.62,88.0
42.63,88.0
42.64,84.0
42.65,83.0
42.66,74.0
42.67,93.0
42.68,84.0
42.69,92.0
42.7,86.0
42.71,76.0
42.72,81.0
42.73,89.0
42.74,75.0
42.75,108.0
42.76,81.0
42.77,89.0
42.78,67.0
42.79,59.0
42.8,78.0
42.81,84.0
42.82,106.0
42.83,91.0
42.84,85.0
42.85,77.0
42.86,92.0
42.87,89.0
42.88,84.0
42.89,77.0
42.9,88.0
42.91,73.0
42.92,91.0
42.93,80.0
42.94,90.0
42.95,74.0
42.96,86.0
42.97,83.0
42.98,86.0
42.99,89.0
43.0,77.0
43.01,86.0
43.02,83.0
43.03,68.0
43.04,86.0
43.05,88.0
43.06,74.0
43.07,79.0
43.08,91.0
43.09,74.0
43.1,86.0
43.11,103.0
43.12,93.0
43.13,79.0
43.14,85.0
43.15,80.0
43.16,85.0
43.17,87.0
43.18,88.0
43.19,113.0
43.2,80.0
43.21,92.0
43.22,82.0
43.23,73.0
43.24,82.0
43.25,78.0
43.26,76.0
43.27,94.0
43.28,86.0
43.29,87.0
43.3,96.0
43.31,83.0
43.32,91.0
43.33,68.0
43.34,89.0
43.35,78.0
43.36,89.0
43.37,85.0
43.38,96.0
43.39,70.0
43.4,80.0
43.41,68.0
43.42,74.0
43.43,94.0
43.44,92.0
43.45,86.0
43.46,85.0
43.47,80.0
43.48,97.0
43.49,68.0
43.5,76.0
43.51,93.0
43.52,88.0
43.53,88.0
43.54,95.0
43.55,80.0
43.56,77.0
43.57,93.0
43.58,82.0
43.59,72.0
43.6,98.0
43.61,79.0
43.62,85.0
43.63,76.0
43.64,72.0
43.65,88.0
43.66,77.0
43.67,74.0
43.68,90.0
43.69,59.0
43.7,99.0
43.71,93.0
43.72,85.0
43.73,89.0
43.74,95.0
43.75,68.0
43.76,94.0
43.77,81.0
43.78,77.0
43.79,88.0
43.8,86.0
43.81,99.0
43.82,85.0
43.83,84.0
43.84,87.0
43.85,82.0
43.86,69.0
43.87,75.0
43.88,90.0
43.89,102.0
43.9,88.0
43.91,73.0
43.92,92.0
43.93,63.0
43.94,74.0
43.95,84.0
43.96,81.0
43.97,93.0
43.98,71.0
43.99,92.0
44.0,70.0
44.01,95.0
44.02,60.0
44.03,102.0
44.04,85.0
44.05,81.0
44.06,96.0
44.07,81.0
44.08,91.0
44.09,75.0
44.1,86.0
44.11,91.0
44.12,77.0
44.13,99.0
44.14,94.0
44.15,88.0
44.16,89.0
44.17,78.0
44.18,88.0
44.19,82.0
44.2,76.0
44.21,85.0
44.22,92.0
44.23,73.0
44.24,93.0
44.25,83.0
44.26,75.0
44.27,90.0
44.28,92.0
44.29,98.0
44.3,101.0
44.31,93.0
44.32,82.0
44.33,72.0
44.34,85.0
44.35,84.0
44.36,84.0
44.37,98.0
44.38,77.0
44.39,85.0
44.4,75.0
44.41,87.0
44.42,88.0
44.43,92.0
44.44,88.0
44.45,89.0
44.46,95.0
44.47,86.0
44.48,82.0
44.49,88.0
44.5,86.0
44.51,82.0
44.52,77.0
44.53,81.0
44.54,77.0
44.55,84.0
44.56,91.0
44.57,89.0
44.58,84.0
44.59,90.0
44.6,107.0
44.61,90.0
44.62,102.0
44.63,82.0
44.64,98.0
44.65,81.0
44.66,99.0
44.67,99.0
44.68,85.0
44.69,74.0
44.7,87.0
44.71,76.0
44.72,91.0
44.73,66.0
44.74,91.0
44.75,78.0
44.76,89.0
44.77,71.0
44.78,101.0
44.79,65.0
44.8,93.0
44.81,84.0
44.82,86.0
44.83,85.0
44.84,71.0
44.85,82.0
44.86,90.0
44.87,81.0
44.88,87.0
44.89,66.0
44.9,86.0
44.91,86.0
44.92,81.0
44.93,73.0
44.94,89.0
44.95,92.0
44.96,75.0
44.97,82.0
44.98,85.0
44.99,88.0
45.0,72.0
45.01,94.0
45.02,81.0
45.03,98.0
45.04,73.0
45.05,82.0
45.06,86.0
45.07,78.0
45.08,86.0
45.09,92.0
45.1,78.0
45.11,99.0
45.12,85.0
45.13,73.0
45.14,69.0
45.15,76.0
45.16,76.0
45.17,77.0
45.18,91.0
45.19,82.0
45.2,82.0
45.21,82.0
45.22,80.0
45.23,80.0
45.24,81.0
45.25,73.0
45.26,72.0
45.27,82.0
45.28,75.0
45.29,73.0
45.3,96.0
45.31,74.0
45.32,87.0
45.33,76.0
45.34,95.0
45.35,95.0
45.36,81.0
45.37,74.0
45.38,85.0
45.39,73.0
45.4,100.0
45.41,81.0
45.42,75.0
45.43,75.0
45.44,102.0
45.45,66.0
45.46,94.0
45.47,91.0
45.48,87.0
45.49,91.0
45.5,77.0
45.51,59.0
45.52,81.0
45.53,84.0
45.54,102.0
45.55,87.0
45.56,92.0
45.57,83.0
45.58,87.0
45.59,87.0
45.6,68.0
45.61,99.0
45.62,78.0
45.63,85.0
45.64,80.0
45.65,99.0
45.66,80.0
45.67,70.0
45.68,85.0
45.69,66.0
45.7,98.0
45.71,89.0
45.72,84.0
45.73,78.0
45.74,70.0
45.75,86.0
45.76,111.0
45.77,70.0
45.78,101.0
45.79,99.0
45.8,91.0
45.81,87.0
45.82,90.0
45.83,86.0
45.84,87.0
45.85,93.0
45.86,86.0
45.87,67.0
45.88,74.0
45.89,79.0
45.9,78.0
45.91,80.0
45.92,99.0
45.93,83.0
45.94,79.0
45.95,92.0
45.96,87.0
45.97,91.0
45.98,87.0
45.99,90.0
46.0,89.0
46.01,104.0
46.02,86.0
46.03,83.0
46.04,77.0
46.05,87.0
46.06,94.0
46.07,87.0
46.08,88.0
46.09,82.0
46.1,83.0
46.11,98.0
46.12,88.0
46.13,77.0
46.14,74.0
46.15,92.0
46.16,83.0
46.17,85.0
46.18,82.0
46.19,90.0
46.2,87.0
46.21,85.0
46.22,87.0
46.23,61.0
46.24,93.0
46.25,91.0
46.26,100.0
46.27,78.0
46.28,88.0
46.29,76.0
46.3,76.0
46.31,95.0
46.32,83.0
46.33,92.0
46.34,108.0
46.35,86.0
46.36,91.0
46.37,87.0
46.38,80.0
46.39,94.0
46.4,93.0
46.41,71.0
46.42,84.0
46.43,82.0
46.44,91.0
46.45,106.0
46.46,77.0
46.47,94.0
46.48,67.0
46.49,74.0
46.5,87.0
46.51,98.0
46.52,77.0
46.53,78.0
46.54,93.0
46.55,87.0
46.56,94.0
46.57,75.0
46.58,93.0
46.59,84.0
46.6,84.0
46.61,89.0
46.62,90.0
46.63,70.0
46.64,82.0
46.65,93.0
46.66,95.0
46.67,89.0
46.68,100.0
46.69,86.0
46.7,82.0
46.71,96.0
46.72,100.0
46.73,95.0
46.74,80.0
46.75,97.0
46.76,77.0
46.77,77.0
46.78,101.0
46.79,77.0
46.8,82.0
46.81,71.0
46.82,100.0
46.83,82.0
46.84,76.0
46.85,95.0
46.86,109.0
46.87,123.0
46.88,123.0
46.89,116.0
46.9,114.0
46.91,151.0
46.92,111.0
46.93,139.0
46.94,129.0
46.95,115.0
46.96,120.0
46.97,108.0
46.98,124.0
46.99,146.0
47.0,121.0
47.01,127.0
47.02,121.0
47.03,145.0
47.04,132.0
47.05,144.0
47.06,129.0
47.07,134.0
47.08,110.0
47.09,102.0
47.1,112.0
47.11,108.0
47.12,105.0
47.13,108.0
47.14,86.0
47.15,77.0
47.16,79.0
47.17,96.0
47.18,116.0
47.19,86.0
47.2,102.0
47.21,71.0
47.22,87.0
47.23,100.0
47.24,94.0
47.25,97.0
47.26,107.0
47.27,96.0
47.28,96.0
47.29,81.0
47.3,89.0
47.31,77.0
47.32,80.0
47.33,73.0
47.34,99.0
47.35,67.0
47.36,82.0
47.37,94.0
47.38,92.0
47.39,85.0
47.4,91.0
47.41,86.0
47.42,85.0
47.43,93.0
47.44,65.0
47.45,81.0
47.46,74.0
47.47,88.0
47.48,87.0
47.49,91.0
47.5,98.0
47.51,75.0
47.52,95.0
47.53,97.0
47.54,76.0
47.55,85.0
47.56,97.0
47.57,84.0
47.58,95.0
47.59,90.0
47.6,83.0
47.61,64.0
47.62,87.0
47.63,82.0
47.64,105.0
47.65,86.0
47.66,98.0
47.67,91.0
47.68,95.0
47.69,83.0
47.7,104.0
47.71,84.0
47.72,85.0
47.73,69.0
47.74,92.0
47.75,75.0
47.76,72.0
47.77,88.0
47.78,97.0
47.79,78.0
47.8,93.0
47.81,84.0
47.82,91.0
47.83,82.0
47.84,75.0
47.85,89.0
47.86,83.0
47.87,92.0
47.88,107.0
47.89,91.0
47.9,88.0
47.91,90.0
47.92,82.0
47.93,92.0
47.94,90.0
47.95,80.0
47.96,86.0
47.97,79.0
47.98,96.0
47.99,96.0
48.0,86.0
48.01,87.0
48.02,104.0
48.03,85.0
48.04,86.0
48.05,78.0
48.06,92.0
48.07,72.0
48.08,83.0
48.09,97.0
48.1,89.0
48.11,81.0
48.12,85.0
48.13,74.0
48.14,79.0
48.15,81.0
48.16,85.0
48.17,78.0
48.18,81.0
48.19,80.0
48.2,75.0
48.21,101.0
48.22,83.0
48.23,110.0
48.24,77.0
48.25,82.0
48.26,75.0
48.27,73.0
48.28,75.0
48.29,81.0
48.3,86.0
48.31,79.0
48.32,90.0
48.33,77.0
48.34,87.0
48.35,82.0
48.36,93.0
48.37,102.0
48.38,88.0
48.39,70.0
48.4,75.0
48.41,91.0
48.42,88.0
48.43,85.0
48.44,79.0
48.45,93.0
48.46,78.0
48.47,98.0
48.48,83.0
48.49,86.0
48.5,82.0
48.51,87.0
48.52,91.0
48.53,98.0
48.54,109.0
48.55,88.0
48.56,89.0
48.57,90.0
48.58,85.0
48.59,94.0
48.6,89.0
48.61,84.0
48.62,86.0
48.63,66.0
48.64,112.0
48.65,96.0
48.66,106.0
48.67,85.0
48.68,69.0
48.69,95.0
48.7,94.0
48.71,93.0
48.72,79.0
48.73,89.0
48.74,74.0
48.75,87.0
48.76,93.0
48.77,102.0
48.78,95.0
48.79,80.0
48.8,95.0
48.81,87.0
48.82,88.0
48.83,92.0
48.84,89.0
48.85,80.0
48.86,95.0
48.87,100.0
48.88,94.0
48.89,80.0
48.9,76.0
48.91,81.0
48.92,100.0
48.93,83.0
48.94,76.0
48.95,63.0
48.96,92.0
48.97,87.0
48.98,92.0
48.99,80.0
49.0,87.0
49.01,99.0
49.02,84.0
49.03,92.0
49.04,96.0
49.05,81.0
49.06,91.0
49.07,89.0
49.08,91.0
49.09,105.0
49.1,89.0
49.11,92.0
49.12,86.0
49.13,100.0
49.14,86.0
49.15,94.0
49.16,99.0
49.17,90.0
49.18,91.0
49.19,101.0
49.2,87.0
49.21,106.0
49.22,101.0
49.23,78.0
49.24,86.0
49.25,94.0
49.26,89.0
49.27,110.0
49.28,84.0
49.29,88.0
49.3,84.0
49.31,94.0
49.32,96.0
49.33,89.0
49.34,86.0
49.35,85.0
49.36,88.0
49.37,79.0
49.38,84.0
49.39,85.0
49.4,91.0
49.41,100.0
49.42,90.0
49.43,103.0
49.44,97.0
49.45,103.0
49.46,115.0
49.47,87.0
49.48,107.0
49.49,107.0
49.5,108.0
49.51,122.0
49.52,125.0
49.53,130.0
49.54,129.0
49.55,139.0
49.56,141.0
49.57,135.0
49.58,158.0
49.59,140.0
49.6,159.0
49.61,153.0
49.62,144.0
49.63,231.0
49.64,219.0
49.65,240.0
49.66,230.0
49.67,242.0
49.68,230.0
49.69,227.0
49.7,192.0
49.71,199.0
49.72,172.0
49.73,180.0
49.74,174.0
49.75,204.0
49.76,231.0
49.77,199.0
49.78,223.0
49.79,217.0
49.8,193.0
49.81,183.0
49.82,166.0
49.83,155.0
49.84,143.0
49.85,142.0
49.86,136.0
49.87,140.0
49.88,129.0
49.89,121.0
49.9,134.0
49.91,134.0
49.92,111.0
49.93,120.0
49.94,115.0
49.95,119.0
49.96,111.0
49.97,106.0
49.98,98.0
49.99,95.0
50.0,105.0
50.01,96.0
50.02,83.0
50.03,108.0
50.04,99.0
50.05,90.0
50.06,102.0
50.07,95.0
50.08,82.0
50.09,100.0
50.1,91.0
50.11,81.0
50.12,76.0
50.13,93.0
50.14,89.0
50.15,83.0
50.16,98.0
50.17,77.0
50.18,80.0
50.19,88.0
50.2,91.0
50.21,91.0
50.22,92.0
50.23,88.0
50.24,97.0
50.25,79.0
50.26,75.0
50.27,94.0
50.28,94.0
50.29,81.0
50.3,75.0
50.31,88.0
50.32,75.0
50.33,89.0
50.34,104.0
50.35,72.0
50.36,84.0
50.37,82.0
50.38,80.0
50.39,84.0
50.4,98.0
50.41,90.0
50.42,80.0
50.43,86.0
50.44,88.0
50.45,104.0
50.46,96.0
50.47,75.0
50.48,84.0
50.49,85.0
50.5,79.0
50.51,89.0
50.52,84.0
50.53,82.0
50.54,100.0
50.55,91.0
50.56,97.0
50.57,88.0
50.58,80.0
50.59,86.0
50.6,85.0
50.61,79.0
50.62,90.0
50.63,77.0
50.64,82.0
50.65,73.0
50.66,78.0
50.67,92.0
50.68,77.0
50.69,73.0
50.7,86.0
50.71,85.0
50.72,94.0
50.73,83.0
50.74,100.0
50.75,89.0
50.76,78.0
50.77,96.0
50.78,74.0
50.79,87.0
50.8,90.0
50.81,88.0
50.82,90.0
50.83,103.0
50.84,82.0
50.85,77.0
50.86,81.0
50.87,95.0
50.88,84.0
50.89,84.0
50.9,74.0
50.91,84.0
50.92,87.0
50.93,93.0
50.94,84.0
50.95,94.0
50.96,97.0
50.97,81.0
50.98,78.0
50.99,89.0
51.0,73.0
51.01,78.0
51.02,92.0
51.03,102.0
51.04,89.0
51.05,75.0
51.06,97.0
51.07,83.0
51.08,72.0
51.09,67.0
51.1,102.0
51.11,74.0
51.12,74.0
51.13,88.0
51.14,98.0
51.15,86.0
51.16,81.0
51.17,85.0
51.18,86.0
51.19,110.0
51.2,90.0
51.21,86.0
51.22,79.0
51.23,93.0
51.24,80.0
51.25,90.0
51.26,93.0
51.27,92.0
51.28,92.0
51.29,91.0
51.3,90.0
51.31,104.0
51.32,100.0
51.33,96.0
51.34,83.0
51.35,83.0
51.36,88.0
51.37,92.0
51.38,80.0
51.39,76.0
51.4,89.0
51.41,94.0
51.42,82.0
51.43,79.0
51.44,91.0
51.45,98.0
51.46,91.0
51.47,88.0
51.48,87.0
51.49,101.0
51.5,86.0
51.51,78.0
51.52,104.0
51.53,90.0
51.54,79.0
51.55,77.0
51.56,92.0
51.57,95.0
51.58,93.0
51.59,69.0
51.6,73.0
51.61,67.0
51.62,86.0
51.63,75.0
51.64,103.0
51.65,79.0
51.66,83.0
51.67,98.0
51.68,96.0
51.69,86.0
51.7,85.0
51.71,83.0
51.72,83.0
51.73,86.0
51.74,80.0
51.75,82.0
51.76,84.0
51.77,74.0
51.78,99.0
51.79,76.0
51.8,83.0
51.81,64.0
51.82,108.0
51.83,87.0
51.84,92.0
51.85,62.0
51.86,90.0
51.87,94.0
51.88,87.0
51.89,81.0
51.9,84.0
51.91,93.0
51.92,78.0
51.93,74.0
51.94,86.0
51.95,116.0
51.96,86.0
51.97,96.0
51.98,88.0
51.99,74.0
52.0,87.0
52.01,83.0
52.02,97.0
52.03,91.0
52.04,82.0
52.05,93.0
52.06,91.0
52.07,89.0
52.08,86.0
52.09,102.0
52.1,100.0
52.11,88.0
52.12,93.0
52.13,96.0
52.14,95.0
52.15,110.0
52.16,129.0
52.17,97.0
52.18,115.0
52.19,101.0
52.2,110.0
52.21,96.0
52.22,107.0
52.23,112.0
52.24,112.0
52.25,121.0
52.26,116.0
52.27,131.0
52.28,121.0
52.29,134.0
52.3,131.0
52.31,98.0
52.32,129.0
52.33,120.0
52.34,126.0
52.35,134.0
52.36,140.0
52.37,102.0
52.38,120.0
52.39,124.0
52.4,120.0
52.41,112.0
52.42,104.0
52.43,126.0
52.44,111.0
52.45,106.0
52.46,96.0
52.47,102.0
52.48,100.0
52.49,85.0
52.5,108.0
52.51,93.0
52.52,102.0
52.53,93.0
52.54,95.0
52.55,112.0
52.56,95.0
52.57,105.0
52.58,88.0
52.59,99.0
52.6,96.0
52.61,91.0
52.62,101.0
52.63,92.0
52.64,97.0
52.65,79.0
52.66,81.0
52.67,80.0
52.68,80.0
52.69,103.0
52.7,88.0
52.71,91.0
52.72,79.0
52.73,107.0
52.74,86.0
52.75,78.0
52.76,100.0
52.77,79.0
52.78,93.0
52.79,92.0
52.8,81.0
52.81,74.0
52.82,84.0
52.83,88.0
52.84,96.0
52.85,92.0
52.86,81.0
52.87,98.0
52.88,92.0
52.89,82.0
52.9,90.0
52.91,78.0
52.92,70.0
52.93,110.0
52.94,112.0
52.95,81.0
52.96,94.0
52.97,80.0
52.98,89.0
52.99,101.0
53.0,90.0
53.01,94.0
53.02,88.0
53.03,85.0
53.04,81.0
53.05,86.0
53.06,86.0
53.07,84.0
53.08,91.0
53.09,106.0
53.1,86.0
53.11,93.0
53.12,86.0
53.13,94.0
53.14,92.0
53.15,92.0
53.16,82.0
53.17,91.0
53.18,88.0
53.19,83.0
53.2,76.0
53.21,82.0
53.22,103.0
53.23,82.0
53.24,85.0
53.25,73.0
53.26,87.0
53.27,80.0
53.28,90.0
53.29,103.0
53.3,84.0
53.31,91.0
53.32,90.0
53.33,94.0
53.34,84.0
53.35,79.0
53.36,82.0
53.37,90.0
53.38,101.0
53.39,111.0
53.4,87.0
53.41,94.0
53.42,88.0
53.43,105.0
53.44,101.0
53.45,91.0
53.46,75.0
53.47,83.0
53.48,80.0
53.49,91.0
53.5,107.0
53.51,90.0
53.52,109.0
53.53,80.0
53.54,91.0
53.55,81.0
53.56,97.0
53.57,87.0
53.58,83.0
53.59,82.0
53.6,101.0
53.61,101.0
53.62,98.0
53.63,73.0
53.64,86.0
53.65,86.0
53.66,96.0
53.67,80.0
53.68,98.0
53.69,88.0
53.7,72.0
53.71,88.0
53.72,73.0
53.73,79.0
53.74,77.0
53.75,90.0
53.76,89.0
53.77,93.0
53.78,94.0
53.79,98.0
53.8,86.0
53.81,96.0
53.82,100.0
53.83,94.0
53.84,79.0
53.85,87.0
53.86,88.0
53.87,86.0
53.88,90.0
53.89,78.0
53.9,90.0
53.91,80.0
53.92,96.0
53.93,89.0
53.94,73.0
53.95,87.0
53.96,107.0
53.97,82.0
53.98,99.0
53.99,103.0
54.0,90.0
54.01,74.0
54.02,95.0
54.03,106.0
54.04,101.0
54.05,71.0
54.06,90.0
54.07,88.0
54.08,99.0
54.09,82.0
54.1,86.0
54.11,95.0
54.12,87.0
54.13,83.0
54.14,97.0
54.15,92.0
54.16,97.0
54.17,82.0
54.18,95.0
54.19,82.0
54.2,81.0
54.21,83.0
54.22,86.0
54.23,85.0
54.24,80.0
54.25,83.0
54.26,85.0
54.27,102.0
54.28,84.0
54.29,96.0
54.3,85.0
54.31,99.0
54.32,79.0
54.33,91.0
54.34,95.0
54.35,95.0
54.36,86.0
54.37,90.0
54.38,105.0
54.39,91.0
54.4,94.0
54.41,72.0
54.42,90.0
54.43,105.0
54.44,104.0
54.45,81.0
54.46,93.0
54.47,96.0
54.48,78.0
54.49,105.0
54.5,92.0
54.51,92.0
54.52,88.0
54.53,89.0
54.54,97.0
54.55,91.0
54.56,105.0
54.57,100.0
54.58,102.0
54.59,85.0
54.6,106.0
54.61,129.0
54.62,108.0
54.63,128.0
54.64,101.0
54.65,110.0
54.66,97.0
54.67,129.0
54.68,134.0
54.69,114.0
54.7,160.0
54.71,134.0
54.72,173.0
54.73,152.0
54.74,160.0
54.75,153.0
54.76,141.0
54.77,165.0
54.78,160.0
54.79,171.0
54.8,168.0
54.81,173.0
54.82,194.0
54.83,221.0
54.84,255.0
54.85,265.0
54.86,246.0
54.87,205.0
54.88,186.0
54.89,178.0
54.9,166.0
54.91,149.0
54.92,112.0
54.93,121.0
54.94,138.0
54.95,139.0
54.96,170.0
54.97,157.0
54.98,168.0
54.99,175.0
55.0,186.0
55.01,170.0
55.02,151.0
55.03,130.0
55.04,106.0
55.05,146.0
55.06,98.0
55.07,111.0
55.08,103.0
55.09,85.0
55.1,94.0
55.11,91.0
55.12,97.0
55.13,104.0
55.14,77.0
55.15,102.0
55.16,82.0
55.17,89.0
55.18,85.0
55.19,83.0
55.2,85.0
55.21,103.0
55.22,81.0
55.23,100.0
55.24,79.0
55.25,106.0
55.26,88.0
55.27,92.0
55.28,77.0
55.29,98.0
55.3,104.0
55.31,96.0
55.32,84.0
55.33,94.0
55.34,78.0
55.35,96.0
55.36,93.0
55.37,92.0
55.38,80.0
55.39,105.0
55.4,88.0
55.41,84.0
55.42,95.0
55.43,79.0
55.44,70.0
55.45,83.0
55.46,89.0
55.47,91.0
55.48,89.0
55.49,73.0
55.5,69.0
55.51,85.0
55.52,81.0
55.53,69.0
55.54,100.0
55.55,84.0
55.56,99.0
55.57,85.0
55.58,96.0
55.59,81.0
55.6,86.0
55.61,100.0
55.62,109.0
55.63,81.0
55.64,83.0
55.65,78.0
55.66,92.0
55.67,85.0
55.68,91.0
55.69,84.0
55.7,95.0
55.71,81.0
55.72,98.0
55.73,81.0
55.74,86.0
55.75,107.0
55.76,84.0
55.77,84.0
55.78,96.0
55.79,94.0
55.8,79.0
55.81,104.0
55.82,73.0
55.83,97.0
55.84,87.0
55.85,85.0
55.86,88.0
55.87,91.0
55.88,78.0
55.89,84.0
55.9,76.0
55.91,92.0
55.92,90.0
55.93,89.0
55.94,95.0
55.95,88.0
55.96,83.0
55.97,85.0
55.98,89.0
55.99,83.0
56.0,95.0
56.01,79.0
56.02,90.0
56.03,98.0
56.04,83.0
56.05,90.0
56.06,118.0
56.07,89.0
56.08,106.0
56.09,97.0
56.1,92.0
56.11,97.0
56.12,95.0
56.13,79.0
56.14,90.0
56.15,90.0
56.16,81.0
56.17,88.0
56.18,102.0
56.19,86.0
56.2,108.0
56.21,89.0
56.22,97.0
56.23,95.0
56.24,85.0
56.25,91.0
56.26,81.0
56.27,86.0
56.28,110.0
56.29,101.0
56.3,99.0
56.31,84.0
56.32,70.0
56.33,85.0
56.34,85.0
56.35,105.0
56.36,82.0
56.37,86.0
56.38,79.0
56.39,95.0
56.4,88.0
56.41,81.0
56.42,89.0
56.43,94.0
56.44,85.0
56.45,92.0
56.46,106.0
56.47,95.0
56.48,85.0
56.49,97.0
56.5,86.0
56.51,95.0
56.52,86.0
56.53,81.0
56.54,95.0
56.55,89.0
56.56,79.0
56.57,100.0
56.58,79.0
56.59,88.0
56.6,111.0
56.61,86.0
56.62,100.0
56.63,107.0
56.64,68.0
56.65,90.0
56.66,92.0
56.67,90.0
56.68,112.0
56.69,78.0
56.7,76.0
56.71,99.0
56.72,82.0
56.73,108.0
56.74,92.0
56.75,94.0
56.76,106.0
56.77,77.0
56.78,77.0
56.79,118.0
56.8,83.0
56.81,102.0
56.82,77.0
56.83,102.0
56.84,79.0
56.85,81.0
56.86,79.0
56.87,89.0
56.88,86.0
56.89,102.0
56.9,85.0
56.91,95.0
56.92,85.0
56.93,91.0
56.94,103.0
56.95,103.0
56.96,83.0
56.97,98.0
56.98,98.0
56.99,109.0
57.0,125.0
57.01,107.0
57.02,116.0
57.03,143.0
57.04,135.0
57.05,121.0
57.06,121.0
57.07,152.0
57.08,192.0
57.09,216.0
57.1,235.0
57.11,223.0
57.12,157.0
57.13,177.0
57.14,189.0
57.15,173.0
57.16,182.0
57.17,158.0
57.18,170.0
57.19,182.0
57.2,182.0
57.21,186.0
57.22,199.0
57.23,236.0
57.24,241.0
57.25,237.0
57.26,242.0
57.27,250.0
57.28,246.0
57.29,200.0
57.3,271.0
57.31,210.0
57.32,180.0
57.33,197.0
57.34,186.0
57.35,169.0
57.36,173.0
57.37,176.0
57.38,169.0
57.39,158.0
57.4,173.0
57.41,156.0
57.42,147.0
57.43,149.0
57.44,152.0
57.45,142.0
57.46,134.0
57.47,135.0
57.48,111.0
57.49,122.0
57.5,131.0
57.51,95.0
57.52,121.0
57.53,108.0
57.54,110.0
57.55,133.0
57.56,101.0
57.57,107.0
57.58,88.0
57.59,103.0
57.6,97.0
57.61,84.0
57.62,99.0
57.63,108.0
57.64,91.0
57.65,88.0
57.66,94.0
57.67,82.0
57.68,92.0
57.69,94.0
57.7,79.0
57.71,76.0
57.72,71.0
57.73,71.0
57.74,98.0
57.75,90.0
57.76,102.0
57.77,88.0
57.78,104.0
57.79,80.0
57.8,71.0
57.81,94.0
57.82,84.0
57.83,85.0
57.84,94.0
57.85,89.0
57.86,89.0
57.87,94.0
57.88,89.0
57.89,83.0
57.9,80.0
57.91,89.0
57.92,86.0
57.93,90.0
57.94,84.0
57.95,96.0
57.96,86.0
57.97,80.0
57.98,92.0
57.99,98.0
58.0,72.0
58.01,82.0
58.02,87.0
58.03,87.0
58.04,84.0
58.05,79.0
58.06,96.0
58.07,89.0
58.08,85.0
58.09,87.0
58.1,94.0
58.11,92.0
58.12,99.0
58.13,96.0
58.14,78.0
58.15,104.0
58.16,79.0
58.17,84.0
58.18,85.0
58.19,79.0
58.2,73.0
58.21,92.0
58.22,98.0
58.23,84.0
58.24,86.0
58.25,83.0
58.26,84.0
58.27,92.0
58.28,86.0
58.29,98.0
58.3,103.0
58.31,91.0
58.32,87.0
58.33,83.0
58.34,102.0
58.35,87.0
58.36,90.0
58.37,66.0
58.38,101.0
58.39,75.0
58.4,101.0
58.41,102.0
58.42,87.0
58.43,76.0
58.44,84.0
58.45,97.0
58.46,88.0
58.47,96.0
58.48,101.0
58.49,93.0
58.5,81.0
58.51,93.0
58.52,74.0
58.53,96.0
58.54,94.0
58.55,102.0
58.56,94.0
58.57,86.0
58.58,79.0
58.59,112.0
58.6,95.0
58.61,91.0
58.62,92.0
58.63,83.0
58.64,89.0
58.65,75.0
58.66,98.0
58.67,101.0
58.68,87.0
58.69,108.0
58.7,81.0
58.71,82.0
58.72,90.0
58.73,103.0
58.74,87.0
58.75,80.0
58.76,96.0
58.77,80.0
58.78,89.0
58.79,77.0
58.8,76.0
58.81,95.0
58.82,75.0
58.83,95.0
58.84,82.0
58.85,80.0
58.86,82.0
58.87,78.0
58.88,84.0
58.89,75.0
58.9,88.0
58.91,97.0
58.92,85.0
58.93,92.0
58.94,84.0
58.95,104.0
58.96,91.0
58.97,107.0
58.98,100.0
58.99,83.0
59.0,87.0
59.01,87.0
59.02,92.0
59.03,77.0
59.04,90.0
59.05,80.0
59.06,91.0
59.07,106.0
59.08,96.0
59.09,99.0
59.1,80.0
59.11,97.0
59.12,95.0
59.13,85.0
59.14,98.0
59.15,91.0
59.16,86.0
59.17,98.0
59.18,88.0
59.19,87.0
59.2,86.0
59.21,86.0
59.22,91.0
59.23,94.0
59.24,84.0
59.25,98.0
59.26,97.0
59.27,111.0
59.28,102.0
59.29,84.0
59.3,94.0
59.31,75.0
59.32,108.0
59.33,90.0
59.34,86.0
59.35,84.0
59.36,84.0
59.37,89.0
59.38,76.0
59.39,94.0
59.4,89.0
59.41,78.0
59.42,66.0
59.43,79.0
59.44,109.0
59.45,91.0
59.46,106.0
59.47,101.0
59.48,89.0
59.49,82.0
59.5,97.0
59.51,84.0
59.52,92.0
59.53,99.0
59.54,85.0
59.55,88.0
59.56,94.0
59.57,84.0
59.58,95.0
59.59,86.0
59.6,83.0
59.61,85.0
59.62,100.0
59.63,80.0
59.64,103.0
59.65,73.0
59.66,88.0
59.67,93.0
59.68,99.0
59.69,94.0
59.7,82.0
59.71,106.0
59.72,86.0
59.73,102.0
59.74,95.0
59.75,94.0
59.76,98.0
59.77,103.0
59.78,95.0
59.79,83.0
59.8,79.0
59.81,98.0
59.82,106.0
59.83,98.0
59.84,98.0
59.85,95.0
59.86,79.0
59.87,105.0
59.88,75.0
59.89,97.0
59.9,96.0
59.91,87.0
59.92,85.0
59.93,99.0
59.94,90.0
59.95,76.0
59.96,77.0
59.97,97.0
59.98,95.0
59.99,99.0
60.0,78.0
60.01,80.0
60.02,87.0
60.03,83.0
60.04,89.0
60.05,99.0
60.06,92.0
60.07,75.0
60.08,91.0
60.09,91.0
60.1,81.0
60.11,114.0
60.12,85.0
60.13,84.0
60.14,89.0
60.15,84.0
60.16,87.0
60.17,86.0
60.18,86.0
60.19,91.0
60.2,74.0
60.21,94.0
60.22,71.0
60.23,89.0
60.24,89.0
60.25,92.0
60.26,109.0
60.27,77.0
60.28,96.0
60.29,112.0
60.3,91.0
60.31,100.0
60.32,88.0
60.33,92.0
60.34,84.0
60.35,74.0
60.36,90.0
60.37,95.0
60.38,95.0
60.39,97.0
60.4,96.0
60.41,83.0
60.42,76.0
60.43,98.0
60.44,71.0
60.45,86.0
60.46,84.0
60.47,83.0
60.48,89.0
60.49,96.0
60.5,90.0
60.51,94.0
60.52,90.0
60.53,98.0
60.54,100.0
60.55,72.0
60.56,79.0
60.57,71.0
60.58,105.0
60.59,100.0
60.6,92.0
60.61,91.0
60.62,75.0
60.63,88.0
60.64,102.0
60.65,100.0
60.66,85.0
60.67,82.0
60.68,79.0
60.69,93.0
60.7,96.0
60.71,90.0
60.72,101.0
60.73,109.0
60.74,88.0
60.75,90.0
60.76,103.0
60.77,94.0
60.78,77.0
60.79,84.0
60.8,94.0
60.81,97.0
60.82,115.0
60.83,92.0
60.84,90.0
60.85,99.0
60.86,93.0
60.87,92.0
60.88,96.0
60.89,108.0
60.9,99.0
60.91,100.0
60.92,107.0
60.93,90.0
60.94,79.0
60.95,82.0
60.96,86.0
60.97,96.0
60.98,91.0
60.99,88.0
61.0,91.0
61.01,107.0
61.02,87.0
61.03,83.0
61.04,87.0
61.05,89.0
61.06,86.0
61.07,80.0
61.08,98.0
61.09,88.0
61.1,94.0
61.11,81.0
61.12,87.0
61.13,92.0
61.14,85.0
61.15,79.0
61.16,77.0
61.17,101.0
61.18,82.0
61.19,90.0
61.2,93.0
61.21,98.0
61.22,92.0
61.23,95.0
61.24,88.0
61.25,82.0
61.26,85.0
61.27,93.0
61.28,99.0
61.29,90.0
61.3,97.0
61.31,105.0
61.32,100.0
61.33,76.0
61.34,96.0
61.35,89.0
61.36,82.0
61.37,86.0
61.38,83.0
61.39,88.0
61.4,106.0
61.41,87.0
61.42,104.0
61.43,95.0
61.44,82.0
61.45,81.0
61.46,118.0
61.47,108.0
61.48,99.0
61.49,82.0
61.5,75.0
61.51,96.0
61.52,98.0
61.53,104.0
61.54,93.0
61.55,99.0
61.56,89.0
61.57,94.0
61.58,78.0
61.59,88.0
61.6,90.0
61.61,77.0
61.62,68.0
61.63,83.0
61.64,87.0
61.65,102.0
61.66,94.0
61.67,75.0
61.68,99.0
61.69,103.0
61.7,107.0
61.71,107.0
61.72,84.0
61.73,75.0
61.74,96.0
61.75,93.0
61.76,90.0
61.77,103.0
61.78,101.0
61.79,99.0
61.8,88.0
61.81,88.0
61.82,91.0
61.83,83.0
61.84,108.0
61.85,91.0
61.86,87.0
61.87,91.0
61.88,104.0
61.89,78.0
61.9,108.0
61.91,86.0
61.92,93.0
61.93,87.0
61.94,98.0
61.95,86.0
61.96,95.0
61.97,93.0
61.98,83.0
61.99,102.0
62.0,85.0
62.01,94.0
62.02,77.0
62.03,89.0
62.04,99.0
62.05,87.0
62.06,95.0
62.07,98.0
62.08,94.0
62.09,74.0
62.1,98.0
62.11,86.0
62.12,88.0
62.13,99.0
62.14,93.0
62.15,91.0
62.16,100.0
62.17,102.0
62.18,85.0
62.19,86.0
62.2,87.0
62.21,102.0
62.22,87.0
62.23,81.0
62.24,95.0
62.25,88.0
62.26,77.0
62.27,98.0
62.28,75.0
62.29,86.0
62.3,79.0
62.31,85.0
62.32,98.0
62.33,95.0
62.34,97.0
62.35,92.0
62.36,98.0
62.37,87.0
62.38,77.0
62.39,82.0
62.4,93.0
62.41,90.0
62.42,103.0
62.43,94.0
62.44,77.0
62.45,91.0
62.46,108.0
62.47,103.0
62.48,91.0
62.49,86.0
62.5,77.0
62.51,114.0
62.52,99.0
62.53,101.0
62.54,88.0
62.55,82.0
62.56,83.0
62.57,84.0
62.58,99.0
62.59,93.0
62.6,113.0
62.61,93.0
62.62,79.0
62.63,68.0
62.64,92.0
62.65,83.0
62.66,87.0
62.67,82.0
62.68,91.0
62.69,85.0
62.7,78.0
62.71,79.0
62.72,89.0
62.73,75.0
62.74,82.0
62.75,82.0
62.76,93.0
62.77,104.0
62.78,89.0
62.79,80.0
62.8,104.0
62.81,83.0
62.82,97.0
62.83,93.0
62.84,78.0
62.85,88.0
62.86,78.0
62.87,87.0
62.88,90.0
62.89,79.0
62.9,88.0
62.91,94.0
62.92,78.0
62.93,97.0
62.94,98.0
62.95,78.0
62.96,93.0
62.97,85.0
62.98,98.0
62.99,94.0
63.0,79.0
63.01,94.0
63.02,87.0
63.03,97.0
63.04,98.0
63.05,86.0
63.06,86.0
63.07,84.0
63.08,96.0
63.09,88.0
63.1,91.0
63.11,84.0
63.12,110.0
63.13,95.0
63.14,80.0
63.15,114.0
63.16,100.0
63.17,86.0
63.18,89.0
63.19,111.0
63.2,92.0
63.21,101.0
63.22,78.0
63.23,99.0
63.24,75.0
63.25,97.0
63.26,105.0
63.27,94.0
63.28,84.0
63.29,88.0
63.3,98.0
63.31,85.0
63.32,77.0
63.33,79.0
63.34,71.0
63.35,92.0
63.36,99.0
63.37,93.0
63.38,90.0
63.39,84.0
63.4,89.0
63.41,96.0
63.42,101.0
63.43,104.0
63.44,96.0
63.45,80.0
63.46,91.0
63.47,107.0
63.48,84.0
63.49,90.0
63.5,104.0
63.51,82.0
63.52,117.0
63.53,112.0
63.54,76.0
63.55,102.0
63.56,79.0
63.57,83.0
63.58,80.0
63.59,98.0
63.6,90.0
63.61,72.0
63.62,91.0
63.63,84.0
63.64,94.0
63.65,85.0
63.66,80.0
63.67,101.0
63.68,88.0
63.69,97.0
63.7,97.0
63.71,95.0
63.72,82.0
63.73,114.0
63.74,98.0
63.75,91.0
63.76,87.0
63.77,85.0
63.78,78.0
63.79,87.0
63.8,104.0
63.81,108.0
63.82,84.0
63.83,102.0
63.84,116.0
63.85,83.0
63.86,84.0
63.87,89.0
63.88,89.0
63.89,86.0
63.9,99.0
63.91,96.0
63.92,90.0
63.93,105.0
63.94,97.0
63.95,94.0
63.96,73.0
63.97,93.0
63.98,98.0
63.99,82.0
64.0,99.0
64.01,110.0
64.02,100.0
64.03,96.0
64.04,95.0
64.05,86.0
64.06,98.0
64.07,107.0
64.08,90.0
64.09,91.0
64.1,96.0
64.11,79.0
64.12,78.0
64.13,95.0
64.14,75.0
64.15,112.0
64.16,97.0
64.17,112.0
64.18,104.0
64.19,85.0
64.2,86.0
64.21,83.0
64.22,96.0
64.23,90.0
64.24,76.0
64.25,100.0
64.26,99.0
64.27,97.0
64.28,74.0
64.29,89.0
64.3,88.0
64.31,90.0
64.32,94.0
64.33,93.0
64.34,101.0
64.35,77.0
64.36,90.0
64.37,84.0
64.38,87.0
64.39,109.0
64.4,79.0
64.41,82.0
64.42,90.0
64.43,90.0
64.44,86.0
64.45,97.0
64.46,92.0
64.47,87.0
64.48,84.0
64.49,87.0
64.5,96.0
64.51,89.0
64.52,90.0
64.53,84.0
64.54,81.0
64.55,78.0
64.56,102.0
64.57,91.0
64.58,84.0
64.59,99.0
64.6,100.0
64.61,72.0
64.62,84.0
64.63,83.0
64.64,86.0
64.65,109.0
64.66,89.0
64.67,88.0
64.68,82.0
64.69,90.0
64.7,100.0
64.71,105.0
64.72,97.0
64.73,93.0
64.74,96.0
64.75,101.0
64.76,81.0
64.77,93.0
64.78,91.0
64.79,93.0
64.8,75.0
64.81,76.0
64.82,87.0
64.83,101.0
64.84,82.0
64.85,74.0
64.86,86.0
64.87,82.0
64.88,92.0
64.89,93.0
64.9,89.0
64.91,97.0
64.92,118.0
64.93,100.0
64.94,83.0
64.95,89.0
64.96,91.0
64.97,86.0
64.98,120.0
64.99,84.0
65.0,97.0
65.01,86.0
65.02,91.0
65.03,85.0
65.04,112.0
65.05,72.0
65.06,89.0
65.07,89.0
65.08,92.0
65.09,79.0
65.1,106.0
65.11,79.0
65.12,83.0
65.13,87.0
65.14,101.0
65.15,114.0
65.16,92.0
65.17,92.0
65.18,105.0
65.19,89.0
65.2,69.0
65.21,85.0
65.22,104.0
65.23,84.0
65.24,79.0
65.25,104.0
65.26,95.0
65.27,89.0
65.28,92.0
65.29,105.0
65.3,95.0
65.31,97.0
65.32,99.0
65.33,80.0
65.34,94.0
65.35,82.0
65.36,97.0
65.37,80.0
65.38,93.0
65.39,77.0
65.4,89.0
65.41,90.0
65.42,88.0
65.43,98.0
65.44,102.0
65.45,91.0
65.46,87.0
65.47,91.0
65.48,90.0
65.49,99.0
65.5,88.0
65.51,80.0
65.52,81.0
65.53,84.0
65.54,96.0
65.55,86.0
65.56,97.0
65.57,111.0
65.58,101.0
65.59,95.0
65.6,85.0
65.61,96.0
65.62,105.0
65.63,109.0
65.64,85.0
65.65,92.0
65.66,81.0
65.67,109.0
65.68,93.0
65.69,98.0
65.7,94.0
65.71,81.0
65.72,101.0
65.73,78.0
65.74,83.0
65.75,78.0
65.76,86.0
65.77,95.0
65.78,83.0
65.79,106.0
65.8,98.0
65.81,84.0
65.82,88.0
65.83,84.0
65.84,98.0
65.85,89.0
65.86,77.0
65.87,98.0
65.88,97.0
65.89,96.0
65.9,115.0
65.91,115.0
65.92,103.0
65.93,95.0
65.94,92.0
65.95,100.0
65.96,88.0
65.97,94.0
65.98,90.0
65.99,87.0
66.0,100.0
66.01,94.0
66.02,92.0
66.03,104.0
66.04,109.0
66.05,108.0
66.06,80.0
66.07,99.0
66.08,121.0
66.09,91.0
66.1,120.0
66.11,106.0
66.12,109.0
66.13,104.0
66.14,103.0
66.15,117.0
66.16,94.0
66.17,96.0
66.18,105.0
66.19,123.0
66.2,98.0
66.21,85.0
66.22,122.0
66.23,109.0
66.24,116.0
66.25,122.0
66.26,125.0
66.27,124.0
66.28,124.0
66.29,117.0
66.3,136.0
66.31,125.0
66.32,135.0
66.33,135.0
66.34,114.0
66.35,123.0
66.36,123.0
66.37,120.0
66.38,133.0
66.39,132.0
66.4,133.0
66.41,130.0
66.42,152.0
66.43,139.0
66.44,134.0
66.45,126.0
66.46,146.0
66.47,131.0
66.48,102.0
66.49,123.0
66.5,124.0
66.51,100.0
66.52,113.0
66.53,97.0
66.54,130.0
66.55,125.0
66.56,122.0
66.57,111.0
66.58,107.0
66.59,114.0
66.6,129.0
66.61,110.0
66.62,97.0
66.63,112.0
66.64,109.0
66.65,107.0
66.66,97.0
66.67,131.0
66.68,122.0
66.69,101.0
66.7,92.0
66.71,89.0
66.72,104.0
66.73,106.0
66.74,113.0
66.75,105.0
66.76,90.0
66.77,107.0
66.78,91.0
66.79,102.0
66.8,99.0
66.81,79.0
66.82,83.0
66.83,89.0
66.84,108.0
66.85,92.0
66.86,93.0
66.87,89.0
66.88,103.0
66.89,98.0
66.9,90.0
66.91,82.0
66.92,92.0
66.93,96.0
66.94,113.0
66.95,92.0
66.96,90.0
66.97,103.0
66.98,85.0
66.99,92.0
67.0,100.0
67.01,78.0
67.02,91.0
67.03,76.0
67.04,95.0
67.05,99.0
67.06,103.0
67.07,91.0
67.08,94.0
67.09,82.0
67.1,84.0
67.11,104.0
67.12,96.0
67.13,100.0
67.14,88.0
67.15,89.0
67.16,115.0
67.17,95.0
67.18,93.0
67.19,85.0
67.2,92.0
67.21,110.0
67.22,99.0
67.23,100.0
67.24,83.0
67.25,111.0
67.26,109.0
67.27,96.0
67.28,87.0
67.29,94.0
67.3,84.0
67.31,88.0
67.32,86.0
67.33,98.0
67.34,102.0
67.35,96.0
67.36,91.0
67.37,101.0
67.38,96.0
67.39,92.0
67.4,96.0
67.41,97.0
67.42,79.0
67.43,99.0
67.44,91.0
67.45,66.0
67.46,100.0
67.47,103.0
67.48,91.0
67.49,106.0
67.5,110.0
67.51,104.0
67.52,93.0
67.53,113.0
67.54,92.0
67.55,77.0
67.56,76.0
67.57,92.0
67.58,96.0
67.59,107.0
67.6,110.0
67.61,83.0
67.62,86.0
67.63,81.0
67.64,91.0
67.65,92.0
67.66,94.0
67.67,94.0
67.68,103.0
67.69,97.0
67.7,90.0
67.71,87.0
67.72,99.0
67.73,90.0
67.74,88.0
67.75,83.0
67.76,86.0
67.77,82.0
67.78,91.0
67.79,95.0
67.8,116.0
67.81,90.0
67.82,101.0
67.83,91.0
67.84,110.0
67.85,88.0
67.86,103.0
67.87,88.0
67.88,78.0
67.89,81.0
67.9,120.0
67.91,89.0
67.92,100.0
67.93,95.0
67.94,97.0
67.95,88.0
67.96,90.0
67.97,92.0
67.98,92.0
67.99,86.0
68.0,88.0
68.01,87.0
68.02,109.0
68.03,105.0
68.04,103.0
68.05,80.0
68.06,110.0
68.07,96.0
68.08,88.0
68.09,121.0
68.1,100.0
68.11,105.0
68.12,102.0
68.13,100.0
68.14,93.0
68.15,98.0
68.16,77.0
68.17,88.0
68.18,98.0
68.19,92.0
68.2,94.0
68.21,89.0
68.22,106.0
68.23,114.0
68.24,86.0
68.25,92.0
68.26,112.0
68.27,105.0
68.28,98.0
68.29,125.0
68.3,85.0
68.31,104.0
68.32,110.0
68.33,88.0
68.34,84.0
68.35,113.0
68.36,92.0
68.37,92.0
68.38,87.0
68.39,117.0
68.4,106.0
68.41,89.0
68.42,85.0
68.43,109.0
68.44,99.0
68.45,90.0
68.46,112.0
68.47,94.0
68.48,109.0
68.49,83.0
68.5,106.0
68.51,124.0
68.52,115.0
68.53,110.0
68.54,93.0
68.55,105.0
68.56,92.0
68.57,102.0
68.58,122.0
68.59,121.0
68.6,107.0
68.61,97.0
68.62,135.0
68.63,108.0
68.64,124.0
68.65,123.0
68.66,108.0
68.67,113.0
68.68,125.0
68.69,105.0
68.7,113.0
68.71,104.0
68.72,103.0
68.73,101.0
68.74,96.0
68.75,90.0
68.76,114.0
68.77,117.0
68.78,111.0
68.79,103.0
68.8,91.0
68.81,98.0
68.82,103.0
68.83,117.0
68.84,118.0
68.85,107.0
68.86,117.0
68.87,103.0
68.88,131.0
68.89,105.0
68.9,73.0
68.91,96.0
68.92,86.0
68.93,101.0
68.94,97.0
68.95,93.0
68.96,113.0
68.97,90.0
68.98,88.0
68.99,97.0
69.0,94.0
69.01,106.0
69.02,111.0
69.03,101.0
69.04,106.0
69.05,101.0
69.06,87.0
69.07,87.0
69.08,91.0
69.09,93.0
69.1,111.0
69.11,87.0
69.12,97.0
69.13,92.0
69.14,88.0
69.15,108.0
69.16,83.0
69.17,101.0
69.18,97.0
69.19,82.0
69.2,82.0
69.21,84.0
69.22,91.0
69.23,91.0
69.24,91.0
69.25,102.0
69.26,80.0
69.27,84.0
69.28,70.0
69.29,93.0
69.3,90.0
69.31,103.0
69.32,111.0
69.33,82.0
69.34,99.0
69.35,89.0
69.36,94.0
69.37,98.0
69.38,95.0
69.39,104.0
69.4,104.0
69.41,99.0
69.42,102.0
69.43,94.0
69.44,105.0
69.45,101.0
69.46,85.0
69.47,82.0
69.48,105.0
69.49,98.0
69.5,86.0
69.51,79.0
69.52,95.0
69.53,86.0
69.54,76.0
69.55,111.0
69.56,100.0
69.57,93.0
69.58,89.0
69.59,79.0
69.6,81.0
69.61,98.0
69.62,82.0
69.63,101.0
69.64,112.0
69.65,87.0
69.66,85.0
69.67,111.0
69.68,115.0
69.69,80.0
69.7,99.0
69.71,106.0
69.72,91.0
69.73,99.0
69.74,88.0
69.75,96.0
69.76,95.0
69.77,86.0
69.78,102.0
69.79,91.0
69.8,91.0
69.81,98.0
69.82,91.0
69.83,108.0
69.84,109.0
69.85,113.0
69.86,90.0
69.87,96.0
69.88,92.0
69.89,96.0
69.9,81.0
69.91,89.0
69.92,95.0
69.93,96.0
69.94,102.0
69.95,84.0
69.96,101.0
69.97,80.0
69.98,105.0
69.99,110.0
70.0,71.0
70.01,97.0
70.02,89.0
70.03,86.0
70.04,73.0
70.05,104.0
70.06,95.0
70.07,106.0
70.08,98.0
70.09,112.0
70.1,92.0
70.11,87.0
70.12,108.0
70.13,90.0
70.14,106.0
70.15,100.0
70.16,88.0
70.17,95.0
70.18,102.0
70.19,66.0
70.2,87.0
70.21,103.0
70.22,81.0
70.23,91.0
70.24,108.0
70.25,93.0
70.26,94.0
70.27,95.0
70.28,101.0
70.29,101.0
70.3,97.0
70.31,108.0
70.32,103.0
70.33,103.0
70.34,89.0
70.35,83.0
70.36,95.0
70.37,83.0
70.38,102.0
70.39,84.0
70.4,87.0
70.41,85.0
70.42,99.0
70.43,99.0
70.44,92.0
70.45,77.0
70.46,85.0
70.47,112.0
70.48,108.0
70.49,95.0
70.5,98.0
70.51,82.0
70.52,95.0
70.53,99.0
70.54,103.0
70.55,102.0
70.56,110.0
70.57,114.0
70.58,82.0
70.59,94.0
70.6,93.0
70.61,97.0
70.62,91.0
70.63,98.0
70.64,90.0
70.65,111.0
70.66,101.0
70.67,106.0
70.68,97.0
70.69,96.0
70.7,85.0
70.71,105.0
70.72,100.0
70.73,104.0
70.74,115.0
70.75,107.0
70.76,111.0
70.77,107.0
70.78,82.0
70.79,98.0
70.8,101.0
70.81,95.0
70.82,103.0
70.83,110.0
70.84,107.0
70.85,102.0
70.86,94.0
70.87,82.0
70.88,106.0
70.89,97.0
70.9,98.0
70.91,91.0
70.92,116.0
70.93,95.0
70.94,93.0
70.95,95.0
70.96,86.0
70.97,103.0
70.98,105.0
70.99,102.0
71.0,87.0
71.01,81.0
71.02,100.0
71.03,81.0
71.04,98.0
71.05,108.0
71.06,104.0
71.07,94.0
71.08,110.0
71.09,118.0
71.1,88.0
71.11,107.0
71.12,103.0
71.13,96.0
71.14,95.0
71.15,91.0
71.16,111.0
71.17,104.0
71.18,107.0
71.19,101.0
71.2,100.0
71.21,96.0
71.22,101.0
71.23,69.0
71.24,92.0
71.25,88.0
71.26,93.0
71.27,90.0
71.28,100.0
71.29,98.0
71.3,99.0
71.31,88.0
71.32,100.0
71.33,96.0
71.34,107.0
71.35,94.0
71.36,88.0
71.37,85.0
71.38,108.0
71.39,98.0
71.4,106.0
71.41,94.0
71.42,75.0
71.43,94.0
71.44,87.0
71.45,128.0
71.46,90.0
71.47,107.0
71.48,81.0
71.49,87.0
71.5,116.0
71.51,77.0
71.52,96.0
71.53,99.0
71.54,86.0
71.55,90.0
71.56,94.0
71.57,100.0
71.58,81.0
71.59,94.0
71.6,94.0
71.61,94.0
71.62,82.0
71.63,96.0
71.64,91.0
71.65,97.0
71.66,109.0
71.67,111.0
71.68,112.0
71.69,94.0
71.7,89.0
71.71,88.0
71.72,106.0
71.73,103.0
71.74,73.0
71.75,89.0
71.76,113.0
71.77,92.0
71.78,96.0
71.79,102.0
71.8,82.0
71.81,95.0
71.82,110.0
71.83,109.0
71.84,96.0
71.85,96.0
71.86,111.0
71.87,125.0
71.88,82.0
71.89,111.0
71.9,93.0
71.91,108.0
71.92,93.0
71.93,93.0
71.94,111.0
71.95,88.0
71.96,107.0
71.97,102.0
71.98,105.0
71.99,84.0
72.0,103.0
72.01,96.0
72.02,94.0
72.03,110.0
72.04,105.0
72.05,92.0
72.06,115.0
72.07,102.0
72.08,80.0
72.09,83.0
72.1,90.0
72.11,90.0
72.12,83.0
72.13,97.0
72.14,93.0
72.15,83.0
72.16,126.0
72.17,86.0
72.18,107.0
72.19,86.0
72.2,88.0
72.21,89.0
72.22,79.0
72.23,96.0
72.24,90.0
72.25,104.0
72.26,89.0
72.27,101.0
72.28,101.0
72.29,96.0
72.3,96.0
72.31,94.0
72.32,94.0
72.33,96.0
72.34,97.0
72.35,99.0
72.36,103.0
72.37,114.0
72.38,92.0
72.39,90.0
72.4,89.0
72.41,92.0
72.42,100.0
72.43,74.0
72.44,91.0
72.45,91.0
72.46,95.0
72.47,92.0
72.48,94.0
72.49,102.0
72.5,96.0
72.51,96.0
72.52,104.0
72.53,101.0
72.54,97.0
72.55,91.0
72.56,94.0
72.57,103.0
72.58,90.0
72.59,106.0
72.6,96.0
72.61,78.0
72.62,83.0
72.63,96.0
72.64,121.0
72.65,95.0
72.66,116.0
72.67,105.0
72.68,78.0
72.69,97.0
72.7,114.0
72.71,99.0
72.72,74.0
72.73,114.0
72.74,101.0
72.75,85.0
72.76,94.0
72.77,79.0
72.78,88.0
72.79,111.0
72.8,83.0
72.81,106.0
72.82,103.0
72.83,105.0
72.84,109.0
72.85,105.0
72.86,118.0
72.87,96.0
72.88,103.0
72.89,103.0
72.9,110.0
72.91,99.0
72.92,96.0
72.93,101.0
72.94,103.0
72.95,93.0
72.96,83.0
72.97,104.0
72.98,93.0
72.99,96.0
73.0,94.0
73.01,114.0
73.02,99.0
73.03,103.0
73.04,97.0
73.05,102.0
73.06,98.0
73.07,98.0
73.08,97.0
73.09,91.0
73.1,98.0
73.11,107.0
73.12,89.0
73.13,96.0
73.14,101.0
73.15,103.0
73.16,103.0
73.17,97.0
73.18,96.0
73.19,95.0
73.2,88.0
73.21,83.0
73.22,84.0
73.23,88.0
73.24,90.0
73.25,96.0
73.26,96.0
73.27,97.0
73.28,92.0
73.29,114.0
73.3,109.0
73.31,103.0
73.32,96.0
73.33,107.0
73.34,94.0
73.35,90.0
73.36,74.0
73.37,109.0
73.38,85.0
73.39,109.0
73.4,91.0
73.41,95.0
73.42,92.0
73.43,79.0
73.44,94.0
73.45,94.0
73.46,86.0
73.47,102.0
73.48,111.0
73.49,92.0
73.5,86.0
73.51,90.0
73.52,111.0
73.53,95.0
73.54,95.0
73.55,86.0
73.56,106.0
73.57,83.0
73.58,102.0
73.59,105.0
73.6,95.0
73.61,102.0
73.62,91.0
73.63,105.0
73.64,98.0
73.65,109.0
73.66,91.0
73.67,99.0
73.68,96.0
73.69,92.0
73.7,108.0
73.71,98.0
73.72,100.0
73.73,98.0
73.74,107.0
73.75,102.0
73.76,96.0
73.77,99.0
73.78,96.0
73.79,90.0
73.8,80.0
73.81,94.0
73.82,76.0
73.83,109.0
73.84,87.0
73.85,97.0
73.86,85.0
73.87,96.0
73.88,93.0
73.89,117.0
73.9,106.0
73.91,106.0
73.92,85.0
73.93,85.0
73.94,116.0
73.95,93.0
73.96,87.0
73.97,97.0
73.98,91.0
73.99,105.0
74.0,92.0
74.01,113.0
74.02,108.0
74.03,90.0
74.04,83.0
74.05,89.0
74.06,100.0
74.07,87.0
74.08,93.0
74.09,72.0
74.1,107.0
74.11,103.0
74.12,112.0
74.13,92.0
74.14,113.0
74.15,98.0
74.16,94.0
74.17,102.0
74.18,98.0
74.19,95.0
74.2,103.0
74.21,81.0
74.22,99.0
74.23,97.0
74.24,120.0
74.25,87.0
74.26,80.0
74.27,106.0
74.28,88.0
74.29,91.0
74.3,98.0
74.31,99.0
74.32,87.0
74.33,86.0
74.34,101.0
74.35,114.0
74.36,92.0
74.37,86.0
74.38,95.0
74.39,82.0
74.4,112.0
74.41,110.0
74.42,98.0
74.43,90.0
74.44,90.0
74.45,104.0
74.46,111.0
74.47,93.0
74.48,91.0
74.49,119.0
74.5,88.0
74.51,100.0
74.52,89.0
74.53,106.0
74.54,81.0
74.55,107.0
74.56,99.0
74.57,112.0
74.58,102.0
74.59,94.0
74.6,106.0
74.61,96.0
74.62,97.0
74.63,83.0
74.64,95.0
74.65,106.0
74.66,97.0
74.67,119.0
74.68,107.0
74.69,108.0
74.7,117.0
74.71,106.0
74.72,130.0
74.73,112.0
74.74,108.0
74.75,103.0
74.76,106.0
74.77,110.0
74.78,82.0
74.79,96.0
74.8,95.0
74.81,103.0
74.82,77.0
74.83,96.0
74.84,97.0
74.85,90.0
74.86,99.0
74.87,105.0
74.88,102.0
74.89,105.0
74.9,89.0
74.91,121.0
74.92,116.0
74.93,101.0
74.94,105.0
74.95,106.0
74.96,112.0
74.97,94.0
74.98,110.0
74.99,97.0
75.0,82.0
75.01,99.0
75.02,116.0
75.03,110.0
75.04,96.0
75.05,107.0
75.06,98.0
75.07,84.0
75.08,102.0
75.09,115.0
75.1,85.0
75.11,114.0
75.12,100.0
75.13,106.0
75.14,102.0
75.15,115.0
75.16,98.0
75.17,99.0
75.18,88.0
75.19,97.0
75.2,91.0
75.21,102.0
75.22,107.0
75.23,91.0
75.24,90.0
75.25,93.0
75.26,100.0
75.27,92.0
75.28,108.0
75.29,91.0
75.3,96.0
75.31,105.0
75.32,112.0
75.33,102.0
75.34,93.0
75.35,84.0
75.36,104.0
75.37,93.0
75.38,114.0
75.39,87.0
75.4,97.0
75.41,94.0
75.42,101.0
75.43,104.0
75.44,111.0
75.45,75.0
75.46,96.0
75.47,116.0
75.48,98.0
75.49,97.0
75.5,91.0
75.51,99.0
75.52,88.0
75.53,93.0
75.54,86.0
75.55,88.0
75.56,112.0
75.57,88.0
75.58,89.0
75.59,111.0
75.6,106.0
75.61,97.0
75.62,92.0
75.63,104.0
75.64,106.0
75.65,106.0
75.66,71.0
75.67,113.0
75.68,93.0
75.69,106.0
75.7,108.0
75.71,111.0
75.72,90.0
75.73,116.0
75.74,99.0
75.75,99.0
75.76,100.0
75.77,98.0
75.78,92.0
75.79,103.0
75.8,87.0
75.81,101.0
75.82,113.0
75.83,100.0
75.84,86.0
75.85,96.0
75.86,95.0
75.87,91.0
75.88,107.0
75.89,82.0
75.9,94.0
75.91,108.0
75.92,92.0
75.93,100.0
75.94,97.0
75.95,104.0
75.96,108.0
75.97,90.0
75.98,115.0
75.99,80.0
76.0,72.0
76.01,100.0
76.02,100.0
76.03,95.0
76.04,100.0
76.05,85.0
76.06,112.0
76.07,109.0
76.08,93.0
76.09,83.0
76.1,83.0
76.11,75.0
76.12,107.0
76.13,103.0
76.14,105.0
76.15,85.0
76.16,93.0
76.17,98.0
76.18,104.0
76.19,94.0
76.2,79.0
76.21,97.0
76.22,88.0
76.23,96.0
76.24,93.0
76.25,103.0
76.26,104.0
76.27,93.0
76.28,92.0
76.29,96.0
76.3,106.0
76.31,95.0
76.32,92.0
76.33,94.0
76.34,94.0
76.35,101.0
76.36,105.0
76.37,107.0
76.38,98.0
76.39,91.0
76.4,93.0
76.41,108.0
76.42,99.0
76.43,81.0
76.44,102.0
76.45,87.0
76.46,113.0
76.47,89.0
76.48,108.0
76.49,78.0
76.5,103.0
76.51,90.0
76.52,96.0
76.53,90.0
76.54,88.0
76.55,90.0
76.56,90.0
76.57,127.0
76.58,94.0
76.59,109.0
76.6,98.0
76.61,96.0
76.62,83.0
76.63,95.0
76.64,105.0
76.65,98.0
76.66,117.0
76.67,106.0
76.68,89.0
76.69,93.0
76.7,97.0
76.71,101.0
76.72,116.0
76.73,104.0
76.74,115.0
76.75,93.0
76.76,102.0
76.77,88.0
76.78,94.0
76.79,98.0
76.8,105.0
76.81,95.0
76.82,95.0
76.83,103.0
76.84,99.0
76.85,120.0
76.86,98.0
76.87,111.0
76.88,122.0
76.89,103.0
76.9,99.0
76.91,72.0
76.92,113.0
76.93,116.0
76.94,99.0
76.95,121.0
76.96,119.0
76.97,93.0
76.98,129.0
76.99,141.0
77.0,149.0
77.01,129.0
77.02,134.0
77.03,122.0
77.04,109.0
77.05,128.0
77.06,106.0
77.07,109.0
77.08,117.0
77.09,93.0
77.1,111.0
77.11,105.0
77.12,101.0
77.13,97.0
77.14,110.0
77.15,101.0
77.16,110.0
77.17,113.0
77.18,106.0
77.19,108.0
77.2,121.0
77.21,98.0
77.22,112.0
77.23,111.0
77.24,123.0
77.25,116.0
77.26,103.0
77.27,104.0
77.28,87.0
77.29,118.0
77.3,127.0
77.31,114.0
77.32,98.0
77.33,101.0
77.34,105.0
77.35,93.0
77.36,100.0
77.37,97.0
77.38,111.0
77.39,111.0
77.4,110.0
77.41,106.0
77.42,88.0
77.43,106.0
77.44,102.0
77.45,84.0
77.46,86.0
77.47,92.0
77.48,102.0
77.49,106.0
77.5,98.0
77.51,91.0
77.52,78.0
77.53,100.0
77.54,87.0
77.55,77.0
77.56,101.0
77.57,91.0
77.58,95.0
77.59,89.0
77.6,111.0
77.61,96.0
77.62,83.0
77.63,102.0
77.64,84.0
77.65,98.0
77.66,98.0
77.67,91.0
77.68,114.0
77.69,101.0
77.7,92.0
77.71,87.0
77.72,102.0
77.73,86.0
77.74,104.0
77.75,100.0
77.76,84.0
77.77,101.0
77.78,105.0
77.79,96.0
77.8,93.0
77.81,80.0
77.82,91.0
77.83,86.0
77.84,96.0
77.85,99.0
77.86,95.0
77.87,103.0
77.88,89.0
77.89,94.0
77.9,89.0
77.91,102.0
77.92,85.0
77.93,98.0
77.94,85.0
77.95,130.0
77.96,100.0
77.97,92.0
77.98,103.0
77.99,92.0
78.0,107.0
78.01,90.0
78.02,95.0
78.03,88.0
78.04,91.0
78.05,119.0
78.06,100.0
78.07,95.0
78.08,92.0
78.09,97.0
78.1,110.0
78.11,91.0
78.12,110.0
78.13,111.0
78.14,99.0
78.15,106.0
78.16,96.0
78.17,90.0
78.18,91.0
78.19,90.0
78.2,101.0
78.21,91.0
78.22,97.0
78.23,93.0
78.24,85.0
78.25,106.0
78.26,98.0
78.27,91.0
78.28,102.0
78.29,84.0
78.3,92.0
78.31,107.0
78.32,91.0
78.33,122.0
78.34,74.0
78.35,106.0
78.36,94.0
78.37,107.0
78.38,110.0
78.39,104.0
78.4,91.0
78.41,99.0
78.42,111.0
78.43,113.0
78.44,100.0
78.45,89.0
78.46,107.0
78.47,91.0
78.48,118.0
78.49,113.0
78.5,99.0
78.51,93.0
78.52,87.0
78.53,102.0
78.54,98.0
78.55,97.0
78.56,111.0
78.57,110.0
78.58,113.0
78.59,89.0
78.6,79.0
78.61,120.0
78.62,86.0
78.63,108.0
78.64,109.0
78.65,102.0
78.66,97.0
78.67,92.0
78.68,90.0
78.69,110.0
78.7,111.0
78.71,106.0
78.72,123.0
78.73,114.0
78.74,117.0
78.75,117.0
78.76,129.0
78.77,118.0
78.78,134.0
78.79,117.0
78.8,147.0
78.81,148.0
78.82,146.0
78.83,130.0
78.84,136.0
78.85,120.0
78.86,107.0
78.87,146.0
78.88,124.0
78.89,134.0
78.9,94.0
78.91,105.0
78.92,131.0
78.93,115.0
78.94,124.0
78.95,127.0
78.96,109.0
78.97,110.0
78.98,120.0
78.99,134.0
79.0,136.0
79.01,120.0
79.02,138.0
79.03,147.0
79.04,124.0
79.05,137.0
79.06,163.0
79.07,155.0
79.08,128.0
79.09,128.0
79.1,137.0
79.11,114.0
79.12,145.0
79.13,146.0
79.14,135.0
79.15,130.0
79.16,117.0
79.17,131.0
79.18,121.0
79.19,125.0
79.2,139.0
79.21,107.0
79.22,114.0
79.23,122.0
79.24,127.0
79.25,128.0
79.26,128.0
79.27,124.0
79.28,129.0
79.29,117.0
79.3,101.0
79.31,125.0
79.32,104.0
79.33,118.0
79.34,105.0
79.35,120.0
79.36,106.0
79.37,124.0
79.38,110.0
79.39,108.0
79.4,107.0
79.41,121.0
79.42,82.0
79.43,97.0
79.44,106.0
79.45,110.0
79.46,115.0
79.47,103.0
79.48,93.0
79.49,99.0
79.5,110.0
79.51,105.0
79.52,105.0
79.53,116.0
79.54,109.0
79.55,89.0
79.56,88.0
79.57,83.0
79.58,124.0
79.59,99.0
79.6,113.0
79.61,95.0
79.62,98.0
79.63,115.0
79.64,104.0
79.65,110.0
79.66,92.0
79.67,91.0
79.68,104.0
79.69,101.0
79.7,91.0
79.71,101.0
79.72,98.0
79.73,90.0
79.74,90.0
79.75,83.0
79.76,80.0
79.77,92.0
79.78,105.0
79.79,105.0
79.8,123.0
79.81,100.0
79.82,99.0
79.83,102.0
79.84,100.0
79.85,90.0
79.86,86.0
79.87,97.0
79.88,96.0
79.89,114.0
79.9,87.0
79.91,97.0
79.92,95.0
79.93,93.0
79.94,100.0
79.95,94.0
79.96,91.0
79.97,99.0
79.98,109.0
79.99,101.0
80.0,98.0
80.01,103.0
80.02,112.0
80.03,97.0
80.04,103.0
80.05,101.0
80.06,96.0
80.07,74.0
80.08,87.0
80.09,126.0
80.1,105.0
80.11,110.0
80.12,93.0
80.13,116.0
80.14,96.0
80.15,123.0
80.16,97.0
80.17,77.0
80.18,102.0
80.19,103.0
80.2,104.0
80.21,108.0
80.22,127.0
80.23,89.0
80.24,86.0
80.25,103.0
80.26,83.0
80.27,97.0
80.28,102.0
80.29,83.0
80.3,78.0
80.31,98.0
80.32,118.0
80.33,90.0
80.34,98.0
80.35,102.0
80.36,109.0
80.37,95.0
80.38,93.0
80.39,98.0
80.4,105.0
80.41,80.0
80.42,97.0
80.43,101.0
80.44,88.0
80.45,87.0
80.46,93.0
80.47,93.0
80.48,98.0
80.49,85.0
80.5,80.0
80.51,104.0
80.52,116.0
80.53,95.0
80.54,72.0
80.55,87.0
80.56,96.0
80.57,91.0
80.58,90.0
80.59,103.0
80.6,108.0
80.61,96.0
80.62,116.0
80.63,91.0
80.64,110.0
80.65,88.0
80.66,88.0
80.67,105.0
80.68,107.0
80.69,101.0
80.7,96.0
80.71,111.0
80.72,109.0
80.73,95.0
80.74,106.0
80.75,109.0
80.76,92.0
80.77,106.0
80.78,103.0
80.79,85.0
80.8,105.0
80.81,102.0
80.82,127.0
80.83,100.0
80.84,92.0
80.85,108.0
80.86,131.0
80.87,112.0
80.88,90.0
80.89,108.0
80.9,87.0
80.91,82.0
80.92,98.0
80.93,101.0
80.94,86.0
80.95,103.0
80.96,113.0
80.97,100.0
80.98,116.0
80.99,108.0
81.0,104.0
81.01,109.0
81.02,91.0
81.03,125.0
81.04,104.0
81.05,112.0
81.06,109.0
81.07,126.0
81.08,106.0
81.09,133.0
81.1,147.0
81.11,114.0
81.12,163.0
81.13,145.0
81.14,134.0
81.15,119.0
81.16,120.0
81.17,108.0
81.18,100.0
81.19,125.0
81.2,118.0
81.21,124.0
81.22,115.0
81.23,101.0
81.24,100.0
81.25,111.0
81.26,94.0
81.27,100.0
81.28,112.0
81.29,96.0
81.3,93.0
81.31,106.0
81.32,116.0
81.33,119.0
81.34,103.0
81.35,109.0
81.36,108.0
81.37,102.0
81.38,123.0
81.39,79.0
81.4,115.0
81.41,92.0
81.42,118.0
81.43,96.0
81.44,119.0
81.45,95.0
81.46,97.0
81.47,102.0
81.48,98.0
81.49,95.0
81.5,108.0
81.51,102.0
81.52,101.0
81.53,109.0
81.54,95.0
81.55,91.0
81.56,83.0
81.57,108.0
81.58,98.0
81.59,101.0
81.6,92.0
81.61,103.0
81.62,101.0
81.63,100.0
81.64,91.0
81.65,102.0
81.66,108.0
81.67,102.0
81.68,128.0
81.69,95.0
81.7,94.0
81.71,102.0
81.72,92.0
81.73,110.0
81.74,93.0
81.75,102.0
81.76,83.0
81.77,103.0
81.78,116.0
81.79,93.0
81.8,107.0
81.81,78.0
81.82,102.0
81.83,92.0
81.84,94.0
81.85,102.0
81.86,82.0
81.87,91.0
81.88,101.0
81.89,90.0
81.9,97.0
81.91,113.0
81.92,96.0
81.93,87.0
81.94,91.0
81.95,88.0
81.96,101.0
81.97,107.0
81.98,94.0
81.99,90.0
82.0,98.0
82.01,103.0
82.02,104.0
82.03,102.0
82.04,98.0
82.05,92.0
82.06,109.0
82.07,105.0
82.08,94.0
82.09,96.0
82.1,99.0
82.11,92.0
82.12,102.0
82.13,103.0
82.14,94.0
82.15,90.0
82.16,120.0
82.17,97.0
82.18,96.0
82.19,92.0
82.2,95.0
82.21,88.0
82.22,98.0
82.23,117.0
82.24,111.0
82.25,89.0
82.26,85.0
82.27,96.0
82.28,111.0
82.29,89.0
82.3,100.0
82.31,94.0
82.32,106.0
82.33,112.0
82.34,87.0
82.35,100.0
82.36,96.0
82.37,96.0
82.38,101.0
82.39,88.0
82.4,92.0
82.41,98.0
82.42,108.0
82.43,96.0
82.44,101.0
82.45,107.0
82.46,89.0
82.47,111.0
82.48,85.0
82.49,93.0
82.5,106.0
82.51,102.0
82.52,96.0
82.53,89.0
82.54,102.0
82.55,107.0
82.56,102.0
82.57,100.0
82.58,86.0
82.59,96.0
82.6,106.0
82.61,95.0
82.62,102.0
82.63,98.0
82.64,99.0
82.65,102.0
82.66,106.0
82.67,109.0
82.68,98.0
82.69,97.0
82.7,117.0
82.71,114.0
82.72,114.0
82.73,100.0
82.74,94.0
82.75,90.0
82.76,80.0
82.77,111.0
82.78,98.0
82.79,106.0
82.8,104.0
82.81,102.0
82.82,99.0
82.83,95.0
82.84,112.0
82.85,109.0
82.86,111.0
82.87,110.0
82.88,93.0
82.89,101.0
82.9,104.0
82.91,101.0
82.92,83.0
82.93,109.0
82.94,102.0
82.95,102.0
82.96,99.0
82.97,88.0
82.98,106.0
82.99,97.0
83.0,101.0
83.01,89.0
83.02,103.0
83.03,113.0
83.04,109.0
83.05,111.0
83.06,99.0
83.07,108.0
83.08,109.0
83.09,111.0
83.1,104.0
83.11,132.0
83.12,104.0
83.13,93.0
83.14,100.0
83.15,122.0
83.16,116.0
83.17,117.0
83.18,114.0
83.19,116.0
83.2,85.0
83.21,100.0
83.22,122.0
83.23,95.0
83.24,120.0
83.25,98.0
83.26,115.0
83.27,110.0
83.28,88.0
83.29,109.0
83.3,120.0
83.31,130.0
83.32,118.0
83.33,105.0
83.34,100.0
83.35,101.0
83.36,114.0
83.37,112.0
83.38,117.0
83.39,103.0
83.4,96.0
83.41,100.0
83.42,74.0
83.43,98.0
83.44,96.0
83.45,128.0
83.46,109.0
83.47,102.0
83.48,104.0
83.49,112.0
83.5,93.0
83.51,99.0
83.52,97.0
83.53,116.0
83.54,99.0
83.55,86.0
83.56,94.0
83.57,105.0
83.58,94.0
83.59,105.0
83.6,89.0
83.61,99.0
83.62,111.0
83.63,102.0
83.64,86.0
83.65,100.0
83.66,100.0
83.67,85.0
83.68,84.0
83.69,99.0
83.7,98.0
83.71,113.0
83.72,101.0
83.73,102.0
83.74,113.0
83.75,119.0
83.76,87.0
83.77,107.0
83.78,97.0
83.79,85.0
83.8,106.0
83.81,108.0
83.82,89.0
83.83,117.0
83.84,105.0
83.85,94.0
83.86,83.0
83.87,100.0
83.88,109.0
83.89,105.0
83.9,111.0
83.91,107.0
83.92,104.0
83.93,115.0
83.94,110.0
83.95,96.0
83.96,100.0
83.97,108.0
83.98,105.0
83.99,95.0
84.0,93.0
84.01,115.0
84.02,123.0
84.03,87.0
84.04,95.0
84.05,99.0
84.06,97.0
84.07,102.0
84.08,131.0
84.09,89.0
84.1,109.0
84.11,86.0
84.12,99.0
84.13,96.0
84.14,103.0
84.15,94.0
84.16,90.0
84.17,99.0
84.18,87.0
84.19,84.0
84.2,108.0
84.21,93.0
84.22,91.0
84.23,94.0
84.24,91.0
84.25,86.0
84.26,110.0
84.27,98.0
84.28,85.0
84.29,90.0
84.3,75.0
84.31,93.0
84.32,102.0
84.33,106.0
84.34,85.0
84.35,95.0
84.36,105.0
84.37,112.0
84.38,108.0
84.39,108.0
84.4,102.0
84.41,110.0
84.42,107.0
84.43,81.0
84.44,102.0
84.45,106.0
84.46,95.0
84.47,123.0
84.48,103.0
84.49,104.0
84.5,112.0
84.51,97.0
84.52,111.0
84.53,97.0
84.54,94.0
84.55,74.0
84.56,110.0
84.57,115.0
84.58,109.0
84.59,94.0
84.6,113.0
84.61,108.0
84.62,91.0
84.63,87.0
84.64,102.0
84.65,91.0
84.66,90.0
84.67,109.0
84.68,90.0
84.69,92.0
84.7,97.0
84.71,94.0
84.72,86.0
84.73,112.0
84.74,81.0
84.75,94.0
84.76,91.0
84.77,110.0
84.78,107.0
84.79,89.0
84.8,100.0
84.81,114.0
84.82,105.0
84.83,106.0
84.84,96.0
84.85,107.0
84.86,86.0
84.87,108.0
84.88,108.0
84.89,98.0
84.9,103.0
84.91,96.0
84.92,99.0
84.93,103.0
84.94,121.0
84.95,95.0
84.96,96.0
84.97,108.0
84.98,85.0
84.99,104.0
85.0,97.0
85.01,95.0
85.02,111.0
85.03,103.0
85.04,116.0
85.05,124.0
85.06,103.0
85.07,117.0
85.08,125.0
85.09,120.0
85.1,115.0
85.11,89.0
85.12,90.0
85.13,119.0
85.14,111.0
85.15,121.0
85.16,104.0
85.17,109.0
85.18,101.0
85.19,98.0
85.2,106.0
85.21,114.0
85.22,118.0
85.23,114.0
85.24,104.0
85.25,108.0
85.26,125.0
85.27,119.0
85.28,116.0
85.29,107.0
85.3,115.0
85.31,99.0
85.32,119.0
85.33,89.0
85.34,112.0
85.35,113.0
85.36,94.0
85.37,136.0
85.38,104.0
85.39,99.0
85.4,107.0
85.41,104.0
85.42,109.0
85.43,97.0
85.44,105.0
85.45,107.0
85.46,100.0
85.47,90.0
85.48,107.0
85.49,98.0
85.5,108.0
85.51,109.0
85.52,109.0
85.53,98.0
85.54,101.0
85.55,91.0
85.56,106.0
85.57,105.0
85.58,102.0
85.59,108.0
85.6,96.0
85.61,108.0
85.62,108.0
85.63,107.0
85.64,120.0
85.65,118.0
85.66,125.0
85.67,117.0
85.68,108.0
85.69,108.0
85.7,83.0
85.71,93.0
85.72,89.0
85.73,102.0
85.74,92.0
85.75,113.0
85.76,87.0
85.77,90.0
85.78,96.0
85.79,106.0
85.8,84.0
85.81,100.0
85.82,104.0
85.83,126.0
85.84,106.0
85.85,113.0
85.86,92.0
85.87,115.0
85.88,96.0
85.89,105.0
85.9,120.0
85.91,84.0
85.92,88.0
85.93,103.0
85.94,100.0
85.95,80.0
85.96,108.0
85.97,92.0
85.98,91.0
85.99,102.0
86.0,98.0
86.01,115.0
86.02,106.0
86.03,110.0
86.04,104.0
86.05,131.0
86.06,103.0
86.07,122.0
86.08,119.0
86.09,88.0
86.1,100.0
86.11,89.0
86.12,104.0
86.13,96.0
86.14,94.0
86.15,103.0
86.16,105.0
86.17,117.0
86.18,107.0
86.19,95.0
86.2,120.0
86.21,110.0
86.22,103.0
86.23,103.0
86.24,125.0
86.25,117.0
86.26,90.0
86.27,97.0
86.28,109.0
86.29,83.0
86.3,102.0
86.31,121.0
86.32,88.0
86.33,107.0
86.34,105.0
86.35,96.0
86.36,108.0
86.37,105.0
86.38,118.0
86.39,110.0
86.4,110.0
86.41,125.0
86.42,120.0
86.43,97.0
86.44,99.0
86.45,102.0
86.46,107.0
86.47,108.0
86.48,103.0
86.49,87.0
86.5,103.0
86.51,114.0
86.52,94.0
86.53,105.0
86.54,114.0
86.55,106.0
86.56,109.0
86.57,102.0
86.58,105.0
86.59,114.0
86.6,105.0
86.61,83.0
86.62,99.0
86.63,95.0
86.64,95.0
86.65,103.0
86.66,107.0
86.67,106.0
86.68,98.0
86.69,111.0
86.7,107.0
86.71,122.0
86.72,106.0
86.73,104.0
86.74,98.0
86.75,94.0
86.76,92.0
86.77,126.0
86.78,98.0
86.79,108.0
86.8,107.0
86.81,95.0
86.82,104.0
86.83,95.0
86.84,95.0
86.85,111.0
86.86,96.0
86.87,113.0
86.88,116.0
86.89,91.0
86.9,106.0
86.91,107.0
86.92,110.0
86.93,93.0
86.94,90.0
86.95,119.0
86.96,101.0
86.97,86.0
86.98,103.0
86.99,103.0
87.0,82.0
87.01,126.0
87.02,99.0
87.03,115.0
87.04,122.0
87.05,97.0
87.06,106.0
87.07,107.0
87.08,101.0
87.09,122.0
87.1,116.0
87.11,110.0
87.12,105.0
87.13,108.0
87.14,103.0
87.15,104.0
87.16,107.0
87.17,107.0
87.18,114.0
87.19,113.0
87.2,113.0
87.21,123.0
87.22,117.0
87.23,140.0
87.24,154.0
87.25,135.0
87.26,121.0
87.27,125.0
87.28,117.0
87.29,125.0
87.3,110.0
87.31,123.0
87.32,111.0
87.33,115.0
87.34,128.0
87.35,108.0
87.36,109.0
87.37,93.0
87.38,106.0
87.39,105.0
87.4,116.0
87.41,92.0
87.42,90.0
87.43,98.0
87.44,115.0
87.45,103.0
87.46,87.0
87.47,116.0
87.48,99.0
87.49,107.0
87.5,127.0
87.51,109.0
87.52,135.0
87.53,112.0
87.54,112.0
87.55,121.0
87.56,110.0
87.57,90.0
87.58,102.0
87.59,110.0
87.6,109.0
87.61,100.0
87.62,109.0
87.63,109.0
87.64,94.0
87.65,107.0
87.66,101.0
87.67,117.0
87.68,121.0
87.69,99.0
87.7,99.0
87.71,102.0
87.72,90.0
87.73,116.0
87.74,103.0
87.75,103.0
87.76,109.0
87.77,92.0
87.78,103.0
87.79,97.0
87.8,101.0
87.81,94.0
87.82,120.0
87.83,95.0
87.84,103.0
87.85,91.0
87.86,117.0
87.87,108.0
87.88,121.0
87.89,109.0
87.9,91.0
87.91,100.0
87.92,101.0
87.93,121.0
87.94,89.0
87.95,121.0
87.96,110.0
87.97,105.0
87.98,91.0
87.99,93.0
88.0,101.0
88.01,92.0
88.02,98.0
88.03,104.0
88.04,104.0
88.05,93.0
88.06,116.0
88.07,103.0
88.08,107.0
88.09,88.0
88.1,89.0
88.11,83.0
88.12,100.0
88.13,106.0
88.14,101.0
88.15,103.0
88.16,111.0
88.17,91.0
88.18,92.0
88.19,103.0
88.2,82.0
88.21,106.0
88.22,88.0
88.23,112.0
88.24,101.0
88.25,98.0
88.26,129.0
88.27,96.0
88.28,86.0
88.29,94.0
88.3,102.0
88.31,105.0
88.32,96.0
88.33,115.0
88.34,106.0
88.35,86.0
88.36,112.0
88.37,87.0
88.38,112.0
88.39,116.0
88.4,95.0
88.41,110.0
88.42,97.0
88.43,105.0
88.44,126.0
88.45,98.0
88.46,106.0
88.47,108.0
88.48,82.0
88.49,112.0
88.5,101.0
88.51,107.0
88.52,103.0
88.53,92.0
88.54,101.0
88.55,114.0
88.56,87.0
88.57,109.0
88.58,103.0
88.59,105.0
88.6,98.0
88.61,88.0
88.62,92.0
88.63,88.0
88.64,92.0
88.65,113.0
88.66,86.0
88.67,96.0
88.68,114.0
88.69,113.0
88.7,105.0
88.71,106.0
88.72,95.0
88.73,108.0
88.74,110.0
88.75,85.0
88.76,109.0
88.77,113.0
88.78,109.0
88.79,101.0
88.8,113.0
88.81,85.0
88.82,96.0
88.83,115.0
88.84,115.0
88.85,95.0
88.86,97.0
88.87,109.0
88.88,93.0
88.89,67.0
88.9,112.0
88.91,140.0
88.92,101.0
88.93,104.0
88.94,104.0
88.95,109.0
88.96,74.0
88.97,93.0
88.98,99.0
88.99,104.0
89.0,79.0
89.01,106.0
89.02,104.0
89.03,107.0
89.04,125.0
89.05,112.0
89.06,80.0
89.07,99.0
89.08,105.0
89.09,108.0
89.1,91.0
89.11,96.0
89.12,113.0
89.13,96.0
89.14,101.0
89.15,100.0
89.16,104.0
89.17,111.0
89.18,93.0
89.19,100.0
89.2,87.0
89.21,106.0
89.22,105.0
89.23,98.0
89.24,97.0
89.25,121.0
89.26,105.0
89.27,87.0
89.28,95.0
89.29,99.0
89.3,100.0
89.31,125.0
89.32,110.0
89.33,94.0
89.34,116.0
89.35,104.0
89.36,103.0
89.37,110.0
89.38,86.0
89.39,92.0
89.4,116.0
89.41,98.0
89.42,96.0
89.43,94.0
89.44,96.0
89.45,103.0
89.46,112.0
89.47,103.0
89.48,122.0
89.49,98.0
89.5,105.0
89.51,98.0
89.52,108.0
89.53,91.0
89.54,110.0
89.55,118.0
89.56,96.0
89.57,99.0
89.58,122.0
89.59,112.0
89.6,97.0
89.61,92.0
89.62,95.0
89.63,105.0
89.64,116.0
89.65,89.0
89.66,95.0
89.67,92.0
89.68,96.0
89.69,103.0
89.7,99.0
89.71,93.0
89.72,91.0
89.73,92.0
89.74,97.0
89.75,86.0
89.76,120.0
89.77,105.0
89.78,101.0
89.79,99.0
89.8,109.0
89.81,109.0
89.82,98.0
89.83,103.0
89.84,97.0
89.85,121.0
89.86,89.0
89.87,103.0
89.88,107.0
89.89,111.0
89.9,99.0
89.91,95.0
89.92,90.0
89.93,111.0
89.94,94.0
89.95,101.0
89.96,108.0
89.97,90.0
89.98,99.0
89.99,91.0
90.0,104.0
