angle,intensity
5.0,62.0
5.01,60.0
5.02,70.0
5.03,63.0
5.04,53.0
5.05,72.0
5.06,72.0
5.07,73.0
5.08,60.0
5.09,65.0
5.1,56.0
5.11,61.0
5.12,58.0
5.13,71.0
5.14,62.0
5.15,64.0
5.16,84.0
5.17,77.0
5.18,72.0
5.19,77.0
5.2,71.0
5.21,68.0
5.22,71.0
5.23,70.0
5.24,50.0
5.25,74.0
5.26,75.0
5.27,72.0
5.28,69.0
5.29,71.0
5.3,68.0
5.31,77.0
5.32,77.0
5.33,69.0
5.34,49.0
5.35,75.0
5.36,62.0
5.37,70.0
5.38,70.0
5.39,75.0
5.4,69.0
5.41,72.0
5.42,53.0
5.43,80.0
5.44,67.0
5.45,65.0
5.46,67.0
5.47,76.0
5.48,58.0
5.49,73.0
5.5,66.0
5.51,54.0
5.52,57.0
5.53,67.0
5.54,61.0
5.55,77.0
5.56,66.0
5.57,85.0
5.58,75.0
5.59,73.0
5.6,69.0
5.61,78.0
5.62,71.0
5.63,69.0
5.64,76.0
5.65,72.0
5.66,71.0
5.67,60.0
5.68,74.0
5.69,80.0
5.7,73.0
5.71,68.0
5.72,69.0
5.73,57.0
5.74,63.0
5.75,57.0
5.76,59.0
5.77,87.0
5.78,75.0
5.79,64.0
5.8,73.0
5.81,66.0
5.82,75.0
5.83,76.0
5.84,74.0
5.85,62.0
5.86,61.0
5.87,72.0
5.88,69.0
5.89,80.0
5.9,73.0
5.91,62.0
5.92,68.0
5.93,80.0
5.94,82.0
5.95,66.0
5.96,65.0
5.97,66.0
5.98,87.0
5.99,69.0
6.0,71.0
6.01,68.0
6.02,61.0
6.03,70.0
6.04,75.0
6.05,57.0
6.06,58.0
6.07,64.0
6.08,75.0
6.09,69.0
6.1,74.0
6.11,72.0
6.12,61.0
6.13,73.0
6.14,73.0
6.15,61.0
6.16,77.0
6.17,71.0
6.18,70.0
6.19,92.0
6.2,91.0
6.21,68.0
6.22,70.0
6.23,95.0
6.24,86.0
6.25,65.0
6.26,75.0
6.27,72.0
6.28,67.0
6.29,89.0
6.3,80.0
6.31,62.0
6.32,63.0
6.33,68.0
6.34,74.0
6.35,81.0
6.36,72.0
6.37,66.0
6.38,63.0
6.39,66.0
6.4,67.0
6.41,60.0
6.42,71.0
6.43,68.0
6.44,80.0
6.45,75.0
6.46,83.0
6.47,51.0
6.48,73.0
6.49,89.0
6.5,73.0
6.51,74.0
6.52,76.0
6.53,67.0
6.54,68.0
6.55,64.0
6.56,86.0
6.57,59.0
6.58,72.0
6.59,94.0
6.6,64.0
6.61,80.0
6.62,81.0
6.63,74.0
6.64,61.0
6.65,61.0
6.66,73.0
6.67,51.0
6.68,78.0
6.69,72.0
6.7,70.0
6.71,69.0
6.72,66.0
6.73,66.0
6.74,71.0
6.75,71.0
6.76,62.0
6.77,81.0
6.78,79.0
6.79,66.0
6.8,59.0
6.81,76.0
6.82,79.0
6.83,81.0
6.84,69.0
6.85,78.0
6.86,81.0
6.87,74.0
6.88,75.0
6.89,76.0
6.9,81.0
6.91,67.0
6.92,85.0
6.93,88.0
6.94,73.0
6.95,80.0
6.96,65.0
6.97,67.0
6.98,58.0
6.99,77.0
7.0,60.0
7.01,76.0
7.02,63.0
7.03,71.0
7.04,73.0
7.05,79.0
7.06,69.0
7.07,62.0
7.08,71.0
7.09,69.0
7.1,77.0
7.11,58.0
7.12,77.0
7.13,71.0
7.14,73.0
7.15,79.0
7.16,89.0
7.17,73.0
7.18,80.0
7.19,82.0
7.2,80.0
7.21,68.0
7.22,69.0
7.23,79.0
7.24,73.0
7.25,68.0
7.26,62.0
7.27,46.0
7.28,67.0
7.29,69.0
7.3,73.0
7.31,111.0
7.32,87.0
7.33,76.0
7.34,77.0
7.35,70.0
7.36,64.0
7.37,60.0
7.38,81.0
7.39,69.0
7.4,68.0
7.41,62.0
7.42,70.0
7.43,85.0
7.44,73.0
7.45,89.0
7.46,82.0
7.47,75.0
7.48,77.0
7.49,67.0
7.5,63.0
7.51,68.0
7.52,67.0
7.53,53.0
7.54,75.0
7.55,71.0
7.56,59.0
7.57,70.0
7.58,70.0
7.59,66.0
7.6,88.0
7.61,70.0
7.62,70.0
7.63,80.0
7.64,67.0
7.65,75.0
7.66,63.0
7.67,65.0
7.68,66.0
7.69,57.0
7.7,80.0
7.71,75.0
7.72,70.0
7.73,77.0
7.74,60.0
7.75,62.0
7.76,71.0
7.77,73.0
7.78,56.0
7.79,68.0
7.8,59.0
7.81,68.0
7.82,64.0
7.83,68.0
7.84,63.0
7.85,67.0
7.86,81.0
7.87,81.0
7.88,65.0
7.89,63.0
7.9,65.0
7.91,68.0
7.92,52.0
7.93,61.0
7.94,77.0
7.95,82.0
7.96,82.0
7.97,75.0
7.98,81.0
7.99,64.0
8.0,69.0
8.01,77.0
8.02,70.0
8.03,58.0
8.04,71.0
8.05,74.0
8.06,75.0
8.07,71.0
8.08,84.0
8.09,66.0
8.1,60.0
8.11,63.0
8.12,70.0
8.13,67.0
8.14,63.0
8.15,85.0
8.16,66.0
8.17,75.0
8.18,60.0
8.19,92.0
8.2,58.0
8.21,70.0
8.22,54.0
8.23,58.0
8.24,46.0
8.25,72.0
8.26,66.0
8.27,65.0
8.28,77.0
8.29,58.0
8.3,70.0
8.31,62.0
8.32,71.0
8.33,73.0
8.34,71.0
8.35,77.0
8.36,53.0
8.37,47.0
8.38,55.0
8.39,62.0
8.4,61.0
8.41,70.0
8.42,65.0
8.43,69.0
8.44,70.0
8.45,83.0
8.46,65.0
8.47,59.0
8.48,66.0
8.49,76.0
8.5,73.0
8.51,56.0
8.52,61.0
8.53,74.0
8.54,57.0
8.55,85.0
8.56,62.0
8.57,55.0
8.58,73.0
8.59,68.0
8.6,66.0
8.61,58.0
8.62,64.0
8.63,70.0
8.64,74.0
8.65,69.0
8.66,78.0
8.67,70.0
8.68,57.0
8.69,74.0
8.7,61.0
8.71,78.0
8.72,63.0
8.73,68.0
8.74,71.0
8.75,72.0
8.76,75.0
8.77,76.0
8.78,71.0
8.79,61.0
8.8,64.0
8.81,69.0
8.82,67.0
8.83,75.0
8.84,77.0
8.85,75.0
8.86,76.0
8.87,71.0
8.88,83.0
8.89,65.0
8.9,62.0
8.91,61.0
8.92,74.0
8.93,70.0
8.94,72.0
8.95,78.0
8.96,62.0
8.97,60.0
8.98,77.0
8.99,73.0
9.0,78.0
9.01,62.0
9.02,81.0
9.03,75.0
9.04,72.0
9.05,67.0
9.06,54.0
9.07,58.0
9.08,68.0
9.09,70.0
9.1,59.0
9.11,66.0
9.12,54.0
9.13,73.0
9.14,57.0
9.15,55.0
9.16,72.0
9.17,70.0
9.18,65.0
9.19,66.0
9.2,73.0
9.21,60.0
9.22,58.0
9.23,76.0
9.24,67.0
9.25,68.0
9.26,74.0
9.27,60.0
9.28,66.0
9.29,63.0
9.3,84.0
9.31,57.0
9.32,58.0
9.33,65.0
9.34,57.0
9.35,67.0
9.36,66.0
9.37,63.0
9.38,86.0
9.39,61.0
9.4,61.0
9.41,69.0
9.42,62.0
9.43,69.0
9.44,47.0
9.45,50.0
9.46,75.0
9.47,64.0
9.48,68.0
9.49,71.0
9.5,73.0
9.51,65.0
9.52,75.0
9.53,61.0
9.54,51.0
9.55,69.0
9.56,55.0
9.57,69.0
9.58,74.0
9.59,53.0
9.6,65.0
9.61,74.0
9.62,69.0
9.63,72.0
9.64,62.0
9.65,66.0
9.66,59.0
9.67,75.0
9.68,55.0
9.69,65.0
9.7,73.0
9.71,60.0
9.72,74.0
9.73,56.0
9.74,53.0
9.75,62.0
9.76,81.0
9.77,59.0
9.78,64.0
9.79,56.0
9.8,57.0
9.81,61.0
9.82,74.0
9.83,63.0
9.84,71.0
9.85,59.0
9.86,57.0
9.87,74.0
9.88,76.0
9.89,66.0
9.9,61.0
9.91,59.0
9.92,66.0
9.93,68.0
9.94,65.0
9.95,63.0
9.96,83.0
9.97,62.0
9.98,63.0
9.99,62.0
10.0,70.0
10.01,63.0
10.02,62.0
10.03,74.0
10.04,70.0
10.05,68.0
10.06,64.0
10.07,84.0
10.08,68.0
10.09,64.0
10.1,76.0
10.11,66.0
10.12,76.0
10.13,52.0
10.14,74.0
10.15,70.0
10.16,74.0
10.17,56.0
10.18,83.0
10.19,68.0
10.2,60.0
10.21,74.0
10.22,81.0
10.23,52.0
10.24,63.0
10.25,63.0
10.26,54.0
10.27,71.0
10.28,57.0
10.29,72.0
10.3,51.0
10.31,45.0
10.32,63.0
10.33,62.0
10.34,68.0
10.35,65.0
10.36,64.0
10.37,81.0
10.38,59.0
10.39,66.0
10.4,67.0
10.41,71.0
10.42,85.0
10.43,60.0
10.44,71.0
10.45,55.0
10.46,59.0
10.47,55.0
10.48,72.0
10.49,67.0
10.5,66.0
10.51,64.0
10.52,69.0
10.53,57.0
10.54,82.0
10.55,62.0
10.56,63.0
10.57,68.0
10.58,60.0
10.59,71.0
10.6,69.0
10.61,80.0
10.62,61.0
10.63,93.0
10.64,68.0
10.65,82.0
10.66,70.0
10.67,62.0
10.68,81.0
10.69,67.0
10.7,64.0
10.71,64.0
10.72,60.0
10.73,75.0
10.74,65.0
10.75,80.0
10.76,72.0
10.77,66.0
10.78,54.0
10.79,71.0
10.8,72.0
10.81,57.0
10.82,73.0
10.83,67.0
10.84,70.0
10.85,69.0
10.86,78.0
10.87,74.0
10.88,69.0
10.89,61.0
10.9,51.0
10.91,74.0
10.92,76.0
10.93,81.0
10.94,79.0
10.95,68.0
10.96,73.0
10.97,59.0
10.98,97.0
10.99,73.0
11.0,77.0
11.01,82.0
11.02,66.0
11.03,93.0
11.04,86.0
11.05,88.0
11.06,98.0
11.07,90.0
11.08,105.0
11.09,93.0
11.1,74.0
11.11,104.0
11.12,112.0
11.13,108.0
11.14,154.0
11.15,136.0
11.16,152.0
11.17,181.0
11.18,223.0
11.19,236.0
11.2,237.0
11.21,292.0
11.22,318.0
11.23,376.0
11.24,389.0
11.25,374.0
11.26,352.0
11.27,311.0
11.28,307.0
11.29,216.0
11.3,195.0
11.31,162.0
11.32,137.0
11.33,149.0
11.34,123.0
11.35,104.0
11.36,90.0
11.37,92.0
11.38,95.0
11.39,74.0
11.4,91.0
11.41,88.0
11.42,78.0
11.43,74.0
11.44,66.0
11.45,85.0
11.46,89.0
11.47,75.0
11.48,77.0
11.49,79.0
11.5,83.0
11.51,72.0
11.52,80.0
11.53,71.0
11.54,61.0
11.55,73.0
11.56,81.0
11.57,84.0
11.58,74.0
11.59,77.0
11.6,67.0
11.61,76.0
11.62,69.0
11.63,82.0
11.64,82.0
11.65,66.0
11.66,64.0
11.67,86.0
11.68,77.0
11.69,71.0
11.7,71.0
11.71,67.0
11.72,83.0
11.73,57.0
11.74,62.0
11.75,82.0
11.76,64.0
11.77,77.0
11.78,76.0
11.79,56.0
11.8,66.0
11.81,65.0
11.82,66.0
11.83,76.0
11.84,57.0
11.85,78.0
11.86,63.0
11.87,78.0
11.88,72.0
11.89,73.0
11.9,70.0
11.91,71.0
11.92,83.0
11.93,72.0
11.94,78.0
11.95,62.0
11.96,83.0
11.97,68.0
11.98,61.0
11.99,87.0
12.0,67.0
12.01,72.0
12.02,71.0
12.03,75.0
12.04,73.0
12.05,85.0
12.06,79.0
12.07,89.0
12.08,71.0
12.09,76.0
12.1,84.0
12.11,56.0
12.12,72.0
12.13,83.0
12.14,61.0
12.15,65.0
12.16,77.0
12.17,57.0
12.18,66.0
12.19,77.0
12.2,69.0
12.21,65.0
12.22,63.0
12.23,78.0
12.24,76.0
12.25,72.0
12.26,74.0
12.27,67.0
12.28,74.0
12.29,69.0
12.3,66.0
12.31,71.0
12.32,66.0
12.33,74.0
12.34,82.0
12.35,68.0
12.36,79.0
12.37,62.0
12.38,80.0
12.39,70.0
12.4,74.0
12.41,57.0
12.42,76.0
12.43,71.0
12.44,63.0
12.45,63.0
12.46,70.0
12.47,74.0
12.48,62.0
12.49,73.0
12.5,71.0
12.51,77.0
12.52,66.0
12.53,79.0
12.54,80.0
12.55,84.0
12.56,73.0
12.57,63.0
12.58,74.0
12.59,64.0
12.6,79.0
12.61,70.0
12.62,62.0
12.63,73.0
12.64,83.0
12.65,67.0
12.66,69.0
12.67,80.0
12.68,79.0
12.69,76.0
12.7,82.0
12.71,78.0
12.72,83.0
12.73,79.0
12.74,80.0
12.75,83.0
12.76,81.0
12.77,81.0
12.78,70.0
12.79,80.0
12.8,67.0
12.81,85.0
12.82,83.0
12.83,87.0
12.84,73.0
12.85,100.0
12.86,100.0
12.87,88.0
12.88,82.0
12.89,75.0
12.9,90.0
12.91,108.0
12.92,99.0
12.93,104.0
12.94,109.0
12.95,101.0
12.96,93.0
12.97,99.0
12.98,104.0
12.99,113.0
13.0,80.0
13.01,118.0
13.02,116.0
13.03,117.0
13.04,126.0
13.05,101.0
13.06,123.0
13.07,127.0
13.08,119.0
13.09,158.0
13.1,134.0
13.11,161.0
13.12,127.0
13.13,133.0
13.14,175.0
13.15,182.0
13.16,161.0
13.17,186.0
13.18,232.0
13.19,235.0
13.2,249.0
13.21,306.0
13.22,315.0
13.23,359.0
13.24,413.0
13.25,495.0
13.26,583.0
13.27,675.0
13.28,830.0
13.29,969.0
13.3,1134.0
13.31,1459.0
13.32,1634.0
13.33,2002.0
13.34,2093.0
13.35,2246.0
13.36,2247.0
13.37,1946.0
13.38,1668.0
13.39,1324.0
13.4,1098.0
13.41,759.0
13.42,628.0
13.43,432.0
13.44,345.0
13.45,295.0
13.46,296.0
13.47,265.0
13.48,241.0
13.49,217.0
13.5,214.0
13.51,193.0
13.52,213.0
13.53,178.0
13.54,202.0
13.55,183.0
13.56,161.0
13.57,173.0
13.58,147.0
13.59,153.0
13.6,144.0
13.61,122.0
13.62,121.0
13.63,117.0
13.64,107.0
13.65,111.0
13.66,108.0
13.67,112.0
13.68,108.0
13.69,85.0
13.7,99.0
13.71,77.0
13.72,93.0
13.73,96.0
13.74,86.0
13.75,88.0
13.76,100.0
13.77,88.0
13.78,83.0
13.79,85.0
13.8,80.0
13.81,93.0
13.82,109.0
13.83,82.0
13.84,90.0
13.85,83.0
13.86,79.0
13.87,72.0
13.88,78.0
13.89,71.0
13.9,81.0
13.91,67.0
13.92,84.0
13.93,87.0
13.94,91.0
13.95,87.0
13.96,79.0
13.97,82.0
13.98,92.0
13.99,81.0
14.0,69.0
14.01,86.0
14.02,64.0
14.03,89.0
14.04,87.0
14.05,72.0
14.06,80.0
14.07,62.0
14.08,84.0
14.09,73.0
14.1,67.0
14.11,90.0
14.12,79.0
14.13,67.0
14.14,79.0
14.15,77.0
14.16,83.0
14.17,82.0
14.18,58.0
14.19,66.0
14.2,72.0
14.21,80.0
14.22,75.0
14.23,67.0
14.24,83.0
14.25,84.0
14.26,69.0
14.27,76.0
14.28,79.0
14.29,69.0
14.3,69.0
14.31,78.0
14.32,62.0
14.33,55.0
14.34,61.0
14.35,75.0
14.36,78.0
14.37,83.0
14.38,78.0
14.39,77.0
14.4,60.0
14.41,81.0
14.42,77.0
14.43,70.0
14.44,85.0
14.45,76.0
14.46,60.0
14.47,70.0
14.48,69.0
14.49,66.0
14.5,80.0
14.51,79.0
14.52,68.0
14.53,71.0
14.54,71.0
14.55,74.0
14.56,78.0
14.57,66.0
14.58,82.0
14.59,70.0
14.6,61.0
14.61,62.0
14.62,65.0
14.63,74.0
14.64,64.0
14.65,59.0
14.66,68.0
14.67,79.0
14.68,78.0
14.69,79.0
14.7,74.0
14.71,75.0
14.72,68.0
14.73,58.0
14.74,61.0
14.75,61.0
14.76,76.0
14.77,75.0
14.78,74.0
14.79,61.0
14.8,78.0
14.81,68.0
14.82,65.0
14.83,66.0
14.84,63.0
14.85,58.0
14.86,64.0
14.87,73.0
14.88,82.0
14.89,49.0
14.9,60.0
14.91,55.0
14.92,72.0
14.93,56.0
14.94,64.0
14.95,60.0
14.96,69.0
14.97,55.0
14.98,49.0
14.99,60.0
15.0,70.0
15.01,83.0
15.02,75.0
15.03,64.0
15.04,61.0
15.05,66.0
15.06,82.0
15.07,71.0
15.08,81.0
15.09,69.0
15.1,75.0
15.11,66.0
15.12,68.0
15.13,72.0
15.14,64.0
15.15,69.0
15.16,64.0
15.17,75.0
15.18,68.0
15.19,68.0
15.2,49.0
15.21,78.0
15.22,61.0
15.23,74.0
15.24,57.0
15.25,80.0
15.26,66.0
15.27,86.0
15.28,82.0
15.29,70.0
15.3,70.0
15.31,61.0
15.32,55.0
15.33,77.0
15.34,64.0
15.35,59.0
15.36,61.0
15.37,66.0
15.38,64.0
15.39,69.0
15.4,69.0
15.41,58.0
15.42,66.0
15.43,73.0
15.44,65.0
15.45,67.0
15.46,75.0
15.47,73.0
15.48,60.0
15.49,66.0
15.5,68.0
15.51,75.0
15.52,72.0
15.53,58.0
15.54,65.0
15.55,72.0
15.56,73.0
15.57,81.0
15.58,66.0
15.59,63.0
15.6,56.0
15.61,59.0
15.62,58.0
15.63,68.0
15.64,68.0
15.65,50.0
15.66,52.0
15.67,68.0
15.68,67.0
15.69,61.0
15.7,76.0
15.71,57.0
15.72,59.0
15.73,59.0
15.74,53.0
15.75,67.0
15.76,58.0
15.77,70.0
15.78,57.0
15.79,69.0
15.8,52.0
15.81,67.0
15.82,67.0
15.83,74.0
15.84,71.0
15.85,50.0
15.86,69.0
15.87,71.0
15.88,66.0
15.89,63.0
15.9,66.0
15.91,64.0
15.92,68.0
15.93,81.0
15.94,75.0
15.95,63.0
15.96,70.0
15.97,67.0
15.98,49.0
15.99,68.0
16.0,68.0
16.01,64.0
16.02,70.0
16.03,77.0
16.04,57.0
16.05,61.0
16.06,58.0
16.07,77.0
16.08,65.0
16.09,69.0
16.1,64.0
16.11,56.0
16.12,74.0
16.13,58.0
16.14,81.0
16.15,70.0
16.16,55.0
16.17,65.0
16.18,65.0
16.19,70.0
16.2,62.0
16.21,54.0
16.22,71.0
16.23,72.0
16.24,63.0
16.25,70.0
16.26,70.0
16.27,69.0
16.28,46.0
16.29,61.0
16.3,65.0
16.31,77.0
16.32,62.0
16.33,74.0
16.34,66.0
16.35,69.0
16.36,67.0
16.37,80.0
16.38,70.0
16.39,55.0
16.4,71.0
16.41,49.0
16.42,62.0
16.43,61.0
16.44,74.0
16.45,64.0
16.46,56.0
16.47,68.0
16.48,72.0
16.49,61.0
16.5,83.0
16.51,61.0
16.52,93.0
16.53,55.0
16.54,67.0
16.55,51.0
16.56,62.0
16.57,64.0
16.58,66.0
16.59,62.0
16.6,64.0
16.61,65.0
16.62,65.0
16.63,61.0
16.64,40.0
16.65,67.0
16.66,57.0
16.67,53.0
16.68,73.0
16.69,73.0
16.7,84.0
16.71,39.0
16.72,63.0
16.73,67.0
16.74,65.0
16.75,58.0
16.76,71.0
16.77,77.0
16.78,69.0
16.79,56.0
16.8,63.0
16.81,71.0
16.82,69.0
16.83,62.0
16.84,62.0
16.85,67.0
16.86,67.0
16.87,57.0
16.88,52.0
16.89,66.0
16.9,63.0
16.91,55.0
16.92,66.0
16.93,61.0
16.94,70.0
16.95,53.0
16.96,59.0
16.97,59.0
16.98,61.0
16.99,71.0
17.0,72.0
17.01,62.0
17.02,73.0
17.03,61.0
17.04,57.0
17.05,55.0
17.06,64.0
17.07,72.0
17.08,65.0
17.09,60.0
17.1,70.0
17.11,78.0
17.12,90.0
17.13,80.0
17.14,65.0
17.15,82.0
17.16,70.0
17.17,59.0
17.18,59.0
17.19,62.0
17.2,70.0
17.21,75.0
17.22,58.0
17.23,71.0
17.24,53.0
17.25,64.0
17.26,85.0
17.27,46.0
17.28,84.0
17.29,66.0
17.3,63.0
17.31,66.0
17.32,63.0
17.33,71.0
17.34,62.0
17.35,74.0
17.36,66.0
17.37,57.0
17.38,62.0
17.39,65.0
17.4,58.0
17.41,63.0
17.42,66.0
17.43,61.0
17.44,67.0
17.45,60.0
17.46,70.0
17.47,75.0
17.48,64.0
17.49,73.0
17.5,70.0
17.51,58.0
17.52,66.0
17.53,65.0
17.54,54.0
17.55,61.0
17.56,61.0
17.57,65.0
17.58,56.0
17.59,62.0
17.6,73.0
17.61,60.0
17.62,76.0
17.63,60.0
17.64,48.0
17.65,65.0
17.66,57.0
17.67,72.0
17.68,60.0
17.69,81.0
17.7,62.0
17.71,75.0
17.72,71.0
17.73,73.0
17.74,65.0
17.75,66.0
17.76,74.0
17.77,74.0
17.78,72.0
17.79,66.0
17.8,66.0
17.81,64.0
17.82,57.0
17.83,77.0
17.84,76.0
17.85,63.0
17.86,70.0
17.87,77.0
17.88,60.0
17.89,72.0
17.9,62.0
17.91,53.0
17.92,63.0
17.93,71.0
17.94,61.0
17.95,69.0
17.96,64.0
17.97,63.0
17.98,76.0
17.99,62.0
18.0,73.0
18.01,89.0
18.02,86.0
18.03,79.0
18.04,93.0
18.05,90.0
18.06,101.0
18.07,108.0
18.08,104.0
18.09,108.0
18.1,95.0
18.11,103.0
18.12,105.0
18.13,95.0
18.14,97.0
18.15,88.0
18.16,80.0
18.17,87.0
18.18,96.0
18.19,76.0
18.2,65.0
18.21,78.0
18.22,65.0
18.23,81.0
18.24,62.0
18.25,67.0
18.26,66.0
18.27,57.0
18.28,48.0
18.29,68.0
18.3,59.0
18.31,65.0
18.32,69.0
18.33,60.0
18.34,72.0
18.35,80.0
18.36,63.0
18.37,58.0
18.38,71.0
18.39,51.0
18.4,67.0
18.41,64.0
18.42,49.0
18.43,52.0
18.44,78.0
18.45,65.0
18.46,77.0
18.47,71.0
18.48,72.0
18.49,83.0
18.5,73.0
18.51,67.0
18.52,68.0
18.53,72.0
18.54,75.0
18.55,68.0
18.56,65.0
18.57,62.0
18.58,62.0
18.59,67.0
18.6,63.0
18.61,67.0
18.62,81.0
18.63,60.0
18.64,59.0
18.65,66.0
18.66,67.0
18.67,62.0
18.68,70.0
18.69,64.0
18.7,67.0
18.71,70.0
18.72,59.0
18.73,62.0
18.74,53.0
18.75,51.0
18.76,55.0
18.77,67.0
18.78,55.0
18.79,68.0
18.8,68.0
18.81,48.0
18.82,82.0
18.83,59.0
18.84,58.0
18.85,79.0
18.86,75.0
18.87,73.0
18.88,66.0
18.89,59.0
18.9,68.0
18.91,52.0
18.92,92.0
18.93,46.0
18.94,66.0
18.95,71.0
18.96,55.0
18.97,84.0
18.98,73.0
18.99,69.0
19.0,55.0
19.01,50.0
19.02,63.0
19.03,74.0
19.04,73.0
19.05,69.0
19.06,65.0
19.07,68.0
19.08,62.0
19.09,63.0
19.1,62.0
19.11,54.0
19.12,68.0
19.13,56.0
19.14,58.0
19.15,80.0
19.16,59.0
19.17,54.0
19.18,60.0
19.19,62.0
19.2,58.0
19.21,67.0
19.22,62.0
19.23,78.0
19.24,75.0
19.25,66.0
19.26,85.0
19.27,65.0
19.28,72.0
19.29,73.0
19.3,72.0
19.31,54.0
19.32,60.0
19.33,56.0
19.34,58.0
19.35,77.0
19.36,71.0
19.37,63.0
19.38,70.0
19.39,80.0
19.4,64.0
19.41,66.0
19.42,65.0
19.43,65.0
19.44,71.0
19.45,64.0
19.46,64.0
19.47,76.0
19.48,80.0
19.49,63.0
19.5,75.0
19.51,72.0
19.52,70.0
19.53,64.0
19.54,65.0
19.55,68.0
19.56,80.0
19.57,88.0
19.58,68.0
19.59,54.0
19.6,60.0
19.61,72.0
19.62,79.0
19.63,77.0
19.64,66.0
19.65,64.0
19.66,58.0
19.67,75.0
19.68,83.0
19.69,71.0
19.7,74.0
19.71,55.0
19.72,64.0
19.73,67.0
19.74,65.0
19.75,60.0
19.76,76.0
19.77,63.0
19.78,64.0
19.79,74.0
19.8,64.0
19.81,66.0
19.82,69.0
19.83,63.0
19.84,60.0
19.85,62.0
19.86,84.0
19.87,74.0
19.88,85.0
19.89,63.0
19.9,66.0
19.91,64.0
19.92,73.0
19.93,80.0
19.94,62.0
19.95,72.0
19.96,63.0
19.97,72.0
19.98,66.0
19.99,61.0
20.0,72.0
20.01,77.0
20.02,79.0
20.03,63.0
20.04,65.0
20.05,67.0
20.06,82.0
20.07,60.0
20.08,71.0
20.09,81.0
20.1,73.0
20.11,73.0
20.12,59.0
20.13,87.0
20.14,60.0
20.15,72.0
20.16,78.0
20.17,78.0
20.18,76.0
20.19,81.0
20.2,70.0
20.21,80.0
20.22,83.0
20.23,89.0
20.24,90.0
20.25,92.0
20.26,83.0
20.27,87.0
20.28,108.0
20.29,102.0
20.3,120.0
20.31,133.0
20.32,130.0
20.33,150.0
20.34,159.0
20.35,172.0
20.36,202.0
20.37,216.0
20.38,205.0
20.39,256.0
20.4,237.0
20.41,230.0
20.42,222.0
20.43,202.0
20.44,230.0
20.45,192.0
20.46,196.0
20.47,146.0
20.48,126.0
20.49,131.0
20.5,120.0
20.51,108.0
20.52,97.0
20.53,96.0
20.54,119.0
20.55,96.0
20.56,88.0
20.57,92.0
20.58,73.0
20.59,84.0
20.6,95.0
20.61,84.0
20.62,59.0
20.63,96.0
20.64,73.0
20.65,78.0
20.66,92.0
20.67,76.0
20.68,68.0
20.69,71.0
20.7,61.0
20.71,66.0
20.72,66.0
20.73,67.0
20.74,76.0
20.75,77.0
20.76,72.0
20.77,70.0
20.78,78.0
20.79,69.0
20.8,73.0
20.81,67.0
20.82,84.0
20.83,70.0
20.84,58.0
20.85,60.0
20.86,85.0
20.87,71.0
20.88,71.0
20.89,52.0
20.9,58.0
20.91,67.0
20.92,78.0
20.93,66.0
20.94,67.0
20.95,76.0
20.96,65.0
20.97,64.0
20.98,67.0
20.99,67.0
21.0,64.0
21.01,80.0
21.02,49.0
21.03,63.0
21.04,57.0
21.05,59.0
21.06,81.0
21.07,69.0
21.08,71.0
21.09,83.0
21.1,66.0
21.11,60.0
21.12,68.0
21.13,70.0
21.14,75.0
21.15,55.0
21.16,67.0
21.17,80.0
21.18,70.0
21.19,77.0
21.2,61.0
21.21,63.0
21.22,69.0
21.23,80.0
21.24,59.0
21.25,59.0
21.26,65.0
21.27,71.0
21.28,64.0
21.29,71.0
21.3,63.0
21.31,73.0
21.32,58.0
21.33,59.0
21.34,58.0
21.35,59.0
21.36,71.0
21.37,57.0
21.38,63.0
21.39,64.0
21.4,68.0
21.41,67.0
21.42,63.0
21.43,83.0
21.44,67.0
21.45,63.0
21.46,65.0
21.47,74.0
21.48,64.0
21.49,86.0
21.5,71.0
21.51,69.0
21.52,65.0
21.53,63.0
21.54,77.0
21.55,72.0
21.56,68.0
21.57,64.0
21.58,79.0
21.59,64.0
21.6,81.0
21.61,73.0
21.62,64.0
21.63,66.0
21.64,68.0
21.65,58.0
21.66,60.0
21.67,61.0
21.68,68.0
21.69,65.0
21.7,54.0
21.71,66.0
21.72,69.0
21.73,61.0
21.74,86.0
21.75,79.0
21.76,78.0
21.77,63.0
21.78,68.0
21.79,55.0
21.8,58.0
21.81,64.0
21.82,68.0
21.83,68.0
21.84,74.0
21.85,69.0
21.86,77.0
21.87,70.0
21.88,56.0
21.89,73.0
21.9,82.0
21.91,77.0
21.92,71.0
21.93,93.0
21.94,102.0
21.95,101.0
21.96,89.0
21.97,95.0
21.98,107.0
21.99,85.0
22.0,89.0
22.01,134.0
22.02,109.0
22.03,101.0
22.04,103.0
22.05,109.0
22.06,106.0
22.07,101.0
22.08,73.0
22.09,87.0
22.1,80.0
22.11,77.0
22.12,68.0
22.13,70.0
22.14,91.0
22.15,76.0
22.16,71.0
22.17,67.0
22.18,75.0
22.19,63.0
22.2,67.0
22.21,77.0
22.22,55.0
22.23,71.0
22.24,76.0
22.25,64.0
22.26,66.0
22.27,83.0
22.28,73.0
22.29,85.0
22.3,61.0
22.31,77.0
22.32,81.0
22.33,53.0
22.34,87.0
22.35,76.0
22.36,53.0
22.37,72.0
22.38,82.0
22.39,93.0
22.4,68.0
22.41,80.0
22.42,80.0
22.43,72.0
22.44,62.0
22.45,76.0
22.46,71.0
22.47,82.0
22.48,96.0
22.49,93.0
22.5,108.0
22.51,97.0
22.52,80.0
22.53,101.0
22.54,105.0
22.55,90.0
22.56,89.0
22.57,87.0
22.58,99.0
22.59,80.0
22.6,87.0
22.61,97.0
22.62,63.0
22.63,71.0
22.64,58.0
22.65,96.0
22.66,75.0
22.67,71.0
22.68,64.0
22.69,63.0
22.7,82.0
22.71,80.0
22.72,70.0
22.73,68.0
22.74,90.0
22.75,90.0
22.76,51.0
22.77,66.0
22.78,77.0
22.79,69.0
22.8,63.0
22.81,87.0
22.82,68.0
22.83,89.0
22.84,73.0
22.85,82.0
22.86,85.0
22.87,104.0
22.88,93.0
22.89,93.0
22.9,114.0
22.91,124.0
22.92,117.0
22.93,143.0
22.94,144.0
22.95,125.0
22.96,127.0
22.97,134.0
22.98,147.0
22.99,117.0
23.0,144.0
23.01,126.0
23.02,124.0
23.03,129.0
23.04,82.0
23.05,94.0
23.06,90.0
23.07,84.0
23.08,91.0
23.09,78.0
23.1,72.0
23.11,81.0
23.12,82.0
23.13,83.0
23.14,80.0
23.15,80.0
23.16,67.0
23.17,85.0
23.18,81.0
23.19,88.0
23.2,79.0
23.21,59.0
23.22,66.0
23.23,67.0
23.24,80.0
23.25,71.0
23.26,67.0
23.27,75.0
23.28,67.0
23.29,61.0
23.3,63.0
23.31,67.0
23.32,88.0
23.33,67.0
23.34,78.0
23.35,61.0
23.36,65.0
23.37,79.0
23.38,66.0
23.39,64.0
23.4,84.0
23.41,68.0
23.42,65.0
23.43,67.0
23.44,61.0
23.45,72.0
23.46,67.0
23.47,74.0
23.48,72.0
23.49,77.0
23.5,69.0
23.51,71.0
23.52,84.0
23.53,70.0
23.54,69.0
23.55,60.0
23.56,76.0
23.57,84.0
23.58,68.0
23.59,78.0
23.6,64.0
23.61,78.0
23.62,87.0
23.63,65.0
23.64,71.0
23.65,66.0
23.66,87.0
23.67,73.0
23.68,66.0
23.69,85.0
23.7,71.0
23.71,77.0
23.72,84.0
23.73,87.0
23.74,71.0
23.75,68.0
23.76,77.0
23.77,87.0
23.78,80.0
23.79,72.0
23.8,71.0
23.81,81.0
23.82,76.0
23.83,73.0
23.84,74.0
23.85,74.0
23.86,57.0
23.87,69.0
23.88,59.0
23.89,65.0
23.9,77.0
23.91,68.0
23.92,74.0
23.93,63.0
23.94,57.0
23.95,61.0
23.96,74.0
23.97,66.0
23.98,79.0
23.99,82.0
24.0,58.0
24.01,72.0
24.02,71.0
24.03,75.0
24.04,81.0
24.05,68.0
24.06,47.0
24.07,73.0
24.08,79.0
24.09,59.0
24.1,57.0
24.11,58.0
24.12,66.0
24.13,75.0
24.14,60.0
24.15,86.0
24.16,71.0
24.17,86.0
24.18,67.0
24.19,76.0
24.2,52.0
24.21,65.0
24.22,75.0
24.23,71.0
24.24,74.0
24.25,82.0
24.26,70.0
24.27,76.0
24.28,76.0
24.29,73.0
24.3,67.0
24.31,76.0
24.32,73.0
24.33,70.0
24.34,85.0
24.35,70.0
24.36,77.0
24.37,60.0
24.38,78.0
24.39,78.0
24.4,72.0
24.41,76.0
24.42,82.0
24.43,79.0
24.44,91.0
24.45,98.0
24.46,86.0
24.47,88.0
24.48,100.0
24.49,96.0
24.5,103.0
24.51,87.0
24.52,99.0
24.53,98.0
24.54,112.0
24.55,87.0
24.56,71.0
24.57,92.0
24.58,87.0
24.59,84.0
24.6,69.0
24.61,55.0
24.62,70.0
24.63,80.0
24.64,73.0
24.65,68.0
24.66,73.0
24.67,78.0
24.68,59.0
24.69,69.0
24.7,60.0
24.71,71.0
24.72,79.0
24.73,75.0
24.74,71.0
24.75,77.0
24.76,57.0
24.77,63.0
24.78,75.0
24.79,75.0
24.8,67.0
24.81,66.0
24.82,64.0
24.83,71.0
24.84,71.0
24.85,70.0
24.86,55.0
24.87,60.0
24.88,78.0
24.89,58.0
24.9,76.0
24.91,74.0
24.92,66.0
24.93,77.0
24.94,75.0
24.95,71.0
24.96,77.0
24.97,70.0
24.98,84.0
24.99,64.0
25.0,74.0
25.01,74.0
25.02,58.0
25.03,72.0
25.04,67.0
25.05,63.0
25.06,71.0
25.07,58.0
25.08,69.0
25.09,59.0
25.1,75.0
25.11,73.0
25.12,77.0
25.13,76.0
25.14,75.0
25.15,69.0
25.16,68.0
25.17,61.0
25.18,64.0
25.19,80.0
25.2,58.0
25.21,82.0
25.22,51.0
25.23,66.0
25.24,73.0
25.25,58.0
25.26,67.0
25.27,71.0
25.28,74.0
25.29,63.0
25.3,64.0
25.31,63.0
25.32,67.0
25.33,71.0
25.34,70.0
25.35,70.0
25.36,69.0
25.37,60.0
25.38,72.0
25.39,76.0
25.4,78.0
25.41,64.0
25.42,73.0
25.43,73.0
25.44,62.0
25.45,81.0
25.46,62.0
25.47,81.0
25.48,67.0
25.49,69.0
25.5,68.0
25.51,85.0
25.52,72.0
25.53,71.0
25.54,54.0
25.55,64.0
25.56,78.0
25.57,73.0
25.58,82.0
25.59,74.0
25.6,82.0
25.61,71.0
25.62,74.0
25.63,73.0
25.64,66.0
25.65,63.0
25.66,68.0
25.67,67.0
25.68,61.0
25.69,59.0
25.7,50.0
25.71,68.0
25.72,52.0
25.73,63.0
25.74,66.0
25.75,68.0
25.76,73.0
25.77,77.0
25.78,69.0
25.79,81.0
25.8,73.0
25.81,61.0
25.82,61.0
25.83,91.0
25.84,46.0
25.85,72.0
25.86,73.0
25.87,69.0
25.88,68.0
25.89,73.0
25.9,66.0
25.91,71.0
25.92,76.0
25.93,60.0
25.94,90.0
25.95,77.0
25.96,59.0
25.97,77.0
25.98,71.0
25.99,86.0
26.0,66.0
26.01,70.0
26.02,78.0
26.03,64.0
26.04,64.0
26.05,69.0
26.06,84.0
26.07,60.0
26.08,63.0
26.09,60.0
26.1,91.0
26.11,66.0
26.12,60.0
26.13,57.0
26.14,70.0
26.15,66.0
26.16,73.0
26.17,57.0
26.18,63.0
26.19,84.0
26.2,74.0
26.21,69.0
26.22,64.0
26.23,86.0
26.24,80.0
26.25,65.0
26.26,75.0
26.27,72.0
26.28,61.0
26.29,75.0
26.3,65.0
26.31,61.0
26.32,56.0
26.33,77.0
26.34,87.0
26.35,86.0
26.36,87.0
26.37,72.0
26.38,67.0
26.39,69.0
26.4,71.0
26.41,65.0
26.42,69.0
26.43,65.0
26.44,70.0
26.45,71.0
26.46,66.0
26.47,79.0
26.48,75.0
26.49,83.0
26.5,67.0
26.51,66.0
26.52,72.0
26.53,66.0
26.54,74.0
26.55,80.0
26.56,83.0
26.57,87.0
26.58,97.0
26.59,83.0
26.6,90.0
26.61,72.0
26.62,90.0
26.63,91.0
26.64,84.0
26.65,82.0
26.66,90.0
26.67,98.0
26.68,82.0
26.69,88.0
26.7,106.0
26.71,98.0
26.72,112.0
26.73,91.0
26.74,96.0
26.75,108.0
26.76,112.0
26.77,117.0
26.78,131.0
26.79,135.0
26.8,124.0
26.81,126.0
26.82,122.0
26.83,132.0
26.84,114.0
26.85,122.0
26.86,109.0
26.87,111.0
26.88,113.0
26.89,100.0
26.9,91.0
26.91,76.0
26.92,80.0
26.93,93.0
26.94,72.0
26.95,64.0
26.96,71.0
26.97,84.0
26.98,80.0
26.99,92.0
27.0,88.0
27.01,85.0
27.02,83.0
27.03,80.0
27.04,77.0
27.05,84.0
27.06,70.0
27.07,57.0
27.08,83.0
27.09,75.0
27.1,61.0
27.11,62.0
27.12,79.0
27.13,67.0
27.14,78.0
27.15,65.0
27.16,68.0
27.17,70.0
27.18,76.0
27.19,80.0
27.2,73.0
27.21,105.0
27.22,61.0
27.23,74.0
27.24,65.0
27.25,69.0
27.26,75.0
27.27,79.0
27.28,84.0
27.29,88.0
27.3,73.0
27.31,76.0
27.32,83.0
27.33,80.0
27.34,91.0
27.35,77.0
27.36,76.0
27.37,60.0
27.38,66.0
27.39,72.0
27.4,74.0
27.41,86.0
27.42,59.0
27.43,80.0
27.44,86.0
27.45,78.0
27.46,69.0
27.47,75.0
27.48,77.0
27.49,75.0
27.5,74.0
27.51,90.0
27.52,88.0
27.53,67.0
27.54,87.0
27.55,89.0
27.56,83.0
27.57,84.0
27.58,71.0
27.59,96.0
27.6,80.0
27.61,110.0
27.62,79.0
27.63,79.0
27.64,80.0
27.65,89.0
27.66,83.0
27.67,95.0
27.68,93.0
27.69,105.0
27.7,97.0
27.71,96.0
27.72,119.0
27.73,103.0
27.74,108.0
27.75,110.0
27.76,100.0
27.77,108.0
27.78,160.0
27.79,142.0
27.8,149.0
27.81,175.0
27.82,186.0
27.83,194.0
27.84,226.0
27.85,247.0
27.86,247.0
27.87,301.0
27.88,321.0
27.89,321.0
27.9,302.0
27.91,378.0
27.92,367.0
27.93,327.0
27.94,309.0
27.95,332.0
27.96,277.0
27.97,306.0
27.98,254.0
27.99,248.0
28.0,262.0
28.01,230.0
28.02,224.0
28.03,248.0
28.04,236.0
28.05,198.0
28.06,194.0
28.07,221.0
28.08,208.0
28.09,195.0
28.1,196.0
28.11,170.0
28.12,178.0
28.13,157.0
28.14,164.0
28.15,148.0
28.16,148.0
28.17,122.0
28.18,118.0
28.19,114.0
28.2,118.0
28.21,108.0
28.22,108.0
28.23,95.0
28.24,91.0
28.25,103.0
28.26,97.0
28.27,79.0
28.28,78.0
28.29,63.0
28.3,75.0
28.31,104.0
28.32,101.0
28.33,88.0
28.34,78.0
28.35,93.0
28.36,97.0
28.37,90.0
28.38,69.0
28.39,80.0
28.4,78.0
28.41,90.0
28.42,61.0
28.43,58.0
28.44,84.0
28.45,90.0
28.46,94.0
28.47,79.0
28.48,72.0
28.49,80.0
28.5,69.0
28.51,71.0
28.52,96.0
28.53,72.0
28.54,78.0
28.55,73.0
28.56,71.0
28.57,79.0
28.58,68.0
28.59,86.0
28.6,75.0
28.61,93.0
28.62,90.0
28.63,76.0
28.64,68.0
28.65,76.0
28.66,72.0
28.67,85.0
28.68,67.0
28.69,77.0
28.7,76.0
28.71,70.0
28.72,80.0
28.73,90.0
28.74,77.0
28.75,79.0
28.76,68.0
28.77,64.0
28.78,88.0
28.79,82.0
28.8,84.0
28.81,67.0
28.82,91.0
28.83,72.0
28.84,69.0
28.85,72.0
28.86,69.0
28.87,75.0
28.88,58.0
28.89,71.0
28.9,69.0
28.91,85.0
28.92,77.0
28.93,78.0
28.94,83.0
28.95,76.0
28.96,79.0
28.97,74.0
28.98,73.0
28.99,64.0
29.0,73.0
29.01,72.0
29.02,83.0
29.03,90.0
29.04,82.0
29.05,90.0
29.06,82.0
29.07,66.0
29.08,88.0
29.09,61.0
29.1,73.0
29.11,71.0
29.12,58.0
29.13,58.0
29.14,66.0
29.15,70.0
29.16,59.0
29.17,91.0
29.18,75.0
29.19,60.0
29.2,79.0
29.21,70.0
29.22,79.0
29.23,73.0
29.24,86.0
29.25,72.0
29.26,89.0
29.27,64.0
29.28,80.0
29.29,58.0
29.3,82.0
29.31,87.0
29.32,69.0
29.33,65.0
29.34,63.0
29.35,73.0
29.36,66.0
29.37,73.0
29.38,84.0
29.39,83.0
29.4,63.0
29.41,84.0
29.42,85.0
29.43,72.0
29.44,77.0
29.45,75.0
29.46,99.0
29.47,76.0
29.48,101.0
29.49,81.0
29.5,85.0
29.51,92.0
29.52,93.0
29.53,72.0
29.54,86.0
29.55,103.0
29.56,85.0
29.57,62.0
29.58,89.0
29.59,94.0
29.6,75.0
29.61,83.0
29.62,82.0
29.63,101.0
29.64,87.0
29.65,78.0
29.66,65.0
29.67,93.0
29.68,88.0
29.69,78.0
29.7,91.0
29.71,80.0
29.72,99.0
29.73,81.0
29.74,84.0
29.75,98.0
29.76,90.0
29.77,102.0
29.78,74.0
29.79,96.0
29.8,99.0
29.81,96.0
29.82,117.0
29.83,115.0
29.84,106.0
29.85,121.0
29.86,138.0
29.87,147.0
29.88,182.0
29.89,149.0
29.9,207.0
29.91,224.0
29.92,211.0
29.93,218.0
29.94,252.0
29.95,282.0
29.96,314.0
29.97,314.0
29.98,311.0
29.99,323.0
30.0,310.0
30.01,326.0
30.02,294.0
30.03,299.0
30.04,260.0
30.05,254.0
30.06,249.0
30.07,247.0
30.08,218.0
30.09,178.0
30.1,192.0
30.11,172.0
30.12,149.0
30.13,164.0
30.14,136.0
30.15,124.0
30.16,112.0
30.17,121.0
30.18,109.0
30.19,102.0
30.2,79.0
30.21,111.0
30.22,93.0
30.23,88.0
30.24,106.0
30.25,78.0
30.26,85.0
30.27,98.0
30.28,104.0
30.29,87.0
30.3,83.0
30.31,92.0
30.32,90.0
30.33,71.0
30.34,76.0
30.35,95.0
30.36,79.0
30.37,98.0
30.38,84.0
30.39,80.0
30.4,84.0
30.41,73.0
30.42,89.0
30.43,73.0
30.44,65.0
30.45,86.0
30.46,74.0
30.47,71.0
30.48,75.0
30.49,72.0
30.5,70.0
30.51,57.0
30.52,79.0
30.53,70.0
30.54,67.0
30.55,79.0
30.56,72.0
30.57,71.0
30.58,76.0
30.59,62.0
30.6,77.0
30.61,59.0
30.62,81.0
30.63,81.0
30.64,92.0
30.65,92.0
30.66,73.0
30.67,68.0
30.68,83.0
30.69,72.0
30.7,71.0
30.71,73.0
30.72,72.0
30.73,77.0
30.74,85.0
30.75,76.0
30.76,80.0
30.77,72.0
30.78,83.0
30.79,68.0
30.8,86.0
30.81,87.0
30.82,66.0
30.83,80.0
30.84,80.0
30.85,65.0
30.86,83.0
30.87,87.0
30.88,61.0
30.89,98.0
30.9,81.0
30.91,76.0
30.92,95.0
30.93,64.0
30.94,67.0
30.95,73.0
30.96,72.0
30.97,68.0
30.98,80.0
30.99,64.0
31.0,54.0
31.01,75.0
31.02,85.0
31.03,63.0
31.04,78.0
31.05,73.0
31.06,74.0
31.07,74.0
31.08,73.0
31.09,93.0
31.1,88.0
31.11,70.0
31.12,85.0
31.13,82.0
31.14,62.0
31.15,62.0
31.16,63.0
31.17,68.0
31.18,79.0
31.19,75.0
31.2,65.0
31.21,52.0
31.22,73.0
31.23,86.0
31.24,83.0
31.25,74.0
31.26,58.0
31.27,64.0
31.28,70.0
31.29,80.0
31.3,62.0
31.31,66.0
31.32,87.0
31.33,63.0
31.34,66.0
31.35,72.0
31.36,56.0
31.37,78.0
31.38,66.0
31.39,70.0
31.4,75.0
31.41,73.0
31.42,80.0
31.43,80.0
31.44,71.0
31.45,76.0
31.46,86.0
31.47,89.0
31.48,58.0
31.49,69.0
31.5,61.0
31.51,76.0
31.52,84.0
31.53,79.0
31.54,76.0
31.55,74.0
31.56,70.0
31.57,57.0
31.58,79.0
31.59,65.0
31.6,53.0
31.61,64.0
31.62,74.0
31.63,80.0
31.64,80.0
31.65,67.0
31.66,80.0
31.67,79.0
31.68,76.0
31.69,64.0
31.7,62.0
31.71,73.0
31.72,75.0
31.73,69.0
31.74,62.0
31.75,70.0
31.76,72.0
31.77,78.0
31.78,78.0
31.79,83.0
31.8,85.0
31.81,78.0
31.82,80.0
31.83,86.0
31.84,70.0
31.85,86.0
31.86,71.0
31.87,67.0
31.88,63.0
31.89,80.0
31.9,68.0
31.91,80.0
31.92,78.0
31.93,93.0
31.94,73.0
31.95,78.0
31.96,66.0
31.97,75.0
31.98,77.0
31.99,73.0
32.0,82.0
32.01,75.0
32.02,67.0
32.03,71.0
32.04,69.0
32.05,92.0
32.06,77.0
32.07,73.0
32.08,65.0
32.09,85.0
32.1,99.0
32.11,82.0
32.12,68.0
32.13,63.0
32.14,83.0
32.15,80.0
32.16,90.0
32.17,67.0
32.18,84.0
32.19,81.0
32.2,81.0
32.21,70.0
32.22,89.0
32.23,61.0
32.24,71.0
32.25,78.0
32.26,75.0
32.27,81.0
32.28,69.0
32.29,76.0
32.3,89.0
32.31,80.0
32.32,93.0
32.33,83.0
32.34,69.0
32.35,71.0
32.36,85.0
32.37,93.0
32.38,76.0
32.39,89.0
32.4,85.0
32.41,88.0
32.42,91.0
32.43,103.0
32.44,89.0
32.45,98.0
32.46,101.0
32.47,113.0
32.48,114.0
32.49,123.0
32.5,133.0
32.51,116.0
32.52,109.0
32.53,124.0
32.54,101.0
32.55,95.0
32.56,101.0
32.57,123.0
32.58,99.0
32.59,106.0
32.6,103.0
32.61,114.0
32.62,107.0
32.63,87.0
32.64,98.0
32.65,108.0
32.66,90.0
32.67,85.0
32.68,80.0
32.69,108.0
32.7,90.0
32.71,76.0
32.72,107.0
32.73,80.0
32.74,114.0
32.75,85.0
32.76,91.0
32.77,103.0
32.78,106.0
32.79,125.0
32.8,116.0
32.81,119.0
32.82,118.0
32.83,157.0
32.84,145.0
32.85,159.0
32.86,179.0
32.87,160.0
32.88,191.0
32.89,219.0
32.9,202.0
32.91,235.0
32.92,230.0
32.93,244.0
32.94,226.0
32.95,249.0
32.96,235.0
32.97,217.0
32.98,255.0
32.99,197.0
33.0,180.0
33.01,201.0
33.02,184.0
33.03,178.0
33.04,179.0
33.05,180.0
33.06,158.0
33.07,139.0
33.08,142.0
33.09,125.0
33.1,157.0
33.11,99.0
33.12,112.0
33.13,109.0
33.14,127.0
33.15,120.0
33.16,121.0
33.17,122.0
33.18,126.0
33.19,146.0
33.2,134.0
33.21,144.0
33.22,127.0
33.23,135.0
33.24,168.0
33.25,165.0
33.26,172.0
33.27,183.0
33.28,210.0
33.29,215.0
33.3,210.0
33.31,225.0
33.32,226.0
33.33,232.0
33.34,226.0
33.35,271.0
33.36,239.0
33.37,235.0
33.38,206.0
33.39,212.0
33.4,211.0
33.41,205.0
33.42,170.0
33.43,197.0
33.44,151.0
33.45,156.0
33.46,158.0
33.47,137.0
33.48,135.0
33.49,126.0
33.5,107.0
33.51,119.0
33.52,110.0
33.53,103.0
33.54,90.0
33.55,98.0
33.56,101.0
33.57,90.0
33.58,97.0
33.59,91.0
33.6,83.0
33.61,88.0
33.62,106.0
33.63,106.0
33.64,82.0
33.65,92.0
33.66,88.0
33.67,73.0
33.68,85.0
33.69,99.0
33.7,83.0
33.71,87.0
33.72,79.0
33.73,80.0
33.74,91.0
33.75,75.0
33.76,87.0
33.77,87.0
33.78,74.0
33.79,88.0
33.8,93.0
33.81,92.0
33.82,84.0
33.83,87.0
33.84,99.0
33.85,96.0
33.86,104.0
33.87,88.0
33.88,113.0
33.89,90.0
33.9,114.0
33.91,100.0
33.92,109.0
33.93,150.0
33.94,125.0
33.95,113.0
33.96,128.0
33.97,142.0
33.98,148.0
33.99,127.0
34.0,148.0
34.01,150.0
34.02,147.0
34.03,161.0
34.04,148.0
34.05,172.0
34.06,183.0
34.07,148.0
34.08,124.0
34.09,145.0
34.1,137.0
34.11,118.0
34.12,149.0
34.13,135.0
34.14,123.0
34.15,125.0
34.16,103.0
34.17,95.0
34.18,105.0
34.19,106.0
34.2,97.0
34.21,113.0
34.22,92.0
34.23,94.0
34.24,90.0
34.25,95.0
34.26,86.0
34.27,95.0
34.28,72.0
34.29,86.0
34.3,70.0
34.31,76.0
34.32,86.0
34.33,85.0
34.34,86.0
34.35,75.0
34.36,79.0
34.37,79.0
34.38,86.0
34.39,100.0
34.4,63.0
34.41,81.0
34.42,69.0
34.43,91.0
34.44,74.0
34.45,66.0
34.46,65.0
34.47,67.0
34.48,94.0
34.49,97.0
34.5,72.0
34.51,75.0
34.52,84.0
34.53,73.0
34.54,80.0
34.55,65.0
34.56,77.0
34.57,65.0
34.58,76.0
34.59,84.0
34.6,81.0
34.61,92.0
34.62,71.0
34.63,75.0
34.64,80.0
34.65,66.0
34.66,75.0
34.67,66.0
34.68,85.0
34.69,72.0
34.7,75.0
34.71,77.0
34.72,90.0
34.73,62.0
34.74,81.0
34.75,70.0
34.76,81.0
34.77,72.0
34.78,60.0
34.79,73.0
34.8,76.0
34.81,76.0
34.82,78.0
34.83,82.0
34.84,88.0
34.85,64.0
34.86,77.0
34.87,100.0
34.88,93.0
34.89,77.0
34.9,79.0
34.91,64.0
34.92,76.0
34.93,96.0
34.94,71.0
34.95,66.0
34.96,79.0
34.97,79.0
34.98,78.0
34.99,74.0
35.0,85.0
35.01,75.0
35.02,72.0
35.03,62.0
35.04,74.0
35.05,69.0
35.06,79.0
35.07,78.0
35.08,72.0
35.09,80.0
35.1,85.0
35.11,71.0
35.12,91.0
35.13,66.0
35.14,83.0
35.15,72.0
35.16,70.0
35.17,73.0
35.18,80.0
35.19,89.0
35.2,80.0
35.21,67.0
35.22,91.0
35.23,66.0
35.24,80.0
35.25,78.0
35.26,84.0
35.27,78.0
35.28,80.0
35.29,95.0
35.3,88.0
35.31,84.0
35.32,85.0
35.33,82.0
35.34,84.0
35.35,86.0
35.36,113.0
35.37,106.0
35.38,79.0
35.39,84.0
35.4,99.0
35.41,99.0
35.42,96.0
35.43,111.0
35.44,115.0
35.45,115.0
35.46,118.0
35.47,116.0
35.48,124.0
35.49,125.0
35.5,144.0
35.51,148.0
35.52,139.0
35.53,157.0
35.54,179.0
35.55,146.0
35.56,127.0
35.57,165.0
35.58,146.0
35.59,139.0
35.6,152.0
35.61,134.0
35.62,132.0
35.63,131.0
35.64,133.0
35.65,106.0
35.66,114.0
35.67,104.0
35.68,113.0
35.69,114.0
35.7,113.0
35.71,95.0
35.72,97.0
35.73,102.0
35.74,99.0
35.75,77.0
35.76,89.0
35.77,97.0
35.78,89.0
35.79,91.0
35.8,77.0
35.81,94.0
35.82,77.0
35.83,81.0
35.84,90.0
35.85,86.0
35.86,91.0
35.87,76.0
35.88,62.0
35.89,84.0
35.9,75.0
35.91,84.0
35.92,77.0
35.93,85.0
35.94,81.0
35.95,68.0
35.96,82.0
35.97,71.0
35.98,77.0
35.99,100.0
36.0,77.0
36.01,72.0
36.02,67.0
36.03,93.0
36.04,86.0
36.05,70.0
36.06,69.0
36.07,80.0
36.08,69.0
36.09,70.0
36.1,90.0
36.11,78.0
36.12,77.0
36.13,75.0
36.14,94.0
36.15,86.0
36.16,87.0
36.17,86.0
36.18,59.0
36.19,74.0
36.2,84.0
36.21,79.0
36.22,72.0
36.23,63.0
36.24,84.0
36.25,75.0
36.26,88.0
36.27,74.0
36.28,83.0
36.29,70.0
36.3,68.0
36.31,82.0
36.32,77.0
36.33,75.0
36.34,107.0
36.35,90.0
36.36,71.0
36.37,77.0
36.38,75.0
36.39,85.0
36.4,73.0
36.41,82.0
36.42,86.0
36.43,80.0
36.44,75.0
36.45,74.0
36.46,69.0
36.47,91.0
36.48,75.0
36.49,79.0
36.5,74.0
36.51,94.0
36.52,83.0
36.53,77.0
36.54,83.0
36.55,93.0
36.56,82.0
36.57,94.0
36.58,85.0
36.59,98.0
36.6,92.0
36.61,99.0
36.62,102.0
36.63,86.0
36.64,93.0
36.65,115.0
36.66,97.0
36.67,118.0
36.68,105.0
36.69,115.0
36.7,117.0
36.71,122.0
36.72,106.0
36.73,111.0
36.74,124.0
36.75,149.0
36.76,164.0
36.77,139.0
36.78,132.0
36.79,143.0
36.8,160.0
36.81,185.0
36.82,144.0
36.83,129.0
36.84,126.0
36.85,157.0
36.86,130.0
36.87,120.0
36.88,135.0
36.89,108.0
36.9,133.0
36.91,94.0
36.92,109.0
36.93,113.0
36.94,109.0
36.95,109.0
36.96,116.0
36.97,97.0
36.98,90.0
36.99,100.0
37.0,95.0
37.01,91.0
37.02,90.0
37.03,78.0
37.04,82.0
37.05,82.0
37.06,90.0
37.07,75.0
37.08,92.0
37.09,79.0
37.1,74.0
37.11,82.0
37.12,86.0
37.13,74.0
37.14,90.0
37.15,93.0
37.16,63.0
37.17,86.0
37.18,75.0
37.19,75.0
37.2,75.0
37.21,58.0
37.22,69.0
37.23,66.0
37.24,80.0
37.25,94.0
37.26,80.0
37.27,71.0
37.28,79.0
37.29,73.0
37.3,79.0
37.31,72.0
37.32,71.0
37.33,70.0
37.34,64.0
37.35,73.0
37.36,85.0
37.37,67.0
37.38,65.0
37.39,77.0
37.4,81.0
37.41,74.0
37.42,77.0
37.43,80.0
37.44,58.0
37.45,62.0
37.46,73.0
37.47,63.0
37.48,92.0
37.49,81.0
37.5,77.0
37.51,72.0
37.52,85.0
37.53,73.0
37.54,56.0
37.55,74.0
37.56,74.0
37.57,80.0
37.58,82.0
37.59,68.0
37.6,74.0
37.61,67.0
37.62,63.0
37.63,65.0
37.64,71.0
37.65,70.0
37.66,78.0
37.67,65.0
37.68,58.0
37.69,90.0
37.7,91.0
37.71,73.0
37.72,64.0
37.73,90.0
37.74,72.0
37.75,81.0
37.76,75.0
37.77,72.0
37.78,64.0
37.79,63.0
37.8,80.0
37.81,68.0
37.82,79.0
37.83,76.0
37.84,70.0
37.85,77.0
37.86,92.0
37.87,79.0
37.88,71.0
37.89,66.0
37.9,76.0
37.91,72.0
37.92,81.0
37.93,84.0
37.94,91.0
37.95,73.0
37.96,72.0
37.97,73.0
37.98,74.0
37.99,76.0
38.0,82.0
38.01,85.0
38.02,89.0
38.03,81.0
38.04,73.0
38.05,79.0
38.06,83.0
38.07,76.0
38.08,66.0
38.09,69.0
38.1,77.0
38.11,69.0
38.12,60.0
38.13,73.0
38.14,72.0
38.15,84.0
38.16,85.0
38.17,89.0
38.18,76.0
38.19,74.0
38.2,75.0
38.21,69.0
38.22,79.0
38.23,89.0
38.24,69.0
38.25,72.0
38.26,88.0
38.27,62.0
38.28,87.0
38.29,68.0
38.3,83.0
38.31,78.0
38.32,82.0
38.33,77.0
38.34,82.0
38.35,77.0
38.36,92.0
38.37,66.0
38.38,66.0
38.39,76.0
38.4,82.0
38.41,60.0
38.42,68.0
38.43,66.0
38.44,64.0
38.45,61.0
38.46,81.0
38.47,84.0
38.48,75.0
38.49,59.0
38.5,84.0
38.51,94.0
38.52,91.0
38.53,72.0
38.54,78.0
38.55,84.0
38.56,75.0
38.57,83.0
38.58,77.0
38.59,72.0
38.6,93.0
38.61,65.0
38.62,92.0
38.63,71.0
38.64,77.0
38.65,96.0
38.66,81.0
38.67,84.0
38.68,98.0
38.69,80.0
38.7,98.0
38.71,96.0
38.72,100.0
38.73,91.0
38.74,119.0
38.75,103.0
38.76,114.0
38.77,101.0
38.78,129.0
38.79,85.0
38.8,104.0
38.81,102.0
38.82,109.0
38.83,95.0
38.84,100.0
38.85,113.0
38.86,95.0
38.87,100.0
38.88,105.0
38.89,88.0
38.9,127.0
38.91,110.0
38.92,125.0
38.93,119.0
38.94,124.0
38.95,143.0
38.96,125.0
38.97,124.0
38.98,151.0
38.99,157.0
39.0,173.0
39.01,182.0
39.02,156.0
39.03,170.0
39.04,165.0
39.05,170.0
39.06,171.0
39.07,178.0
39.08,175.0
39.09,181.0
39.1,168.0
39.11,167.0
39.12,159.0
39.13,158.0
39.14,165.0
39.15,143.0
39.16,141.0
39.17,134.0
39.18,130.0
39.19,127.0
39.2,120.0
39.21,133.0
39.22,144.0
39.23,119.0
39.24,134.0
39.25,119.0
39.26,133.0
39.27,132.0
39.28,115.0
39.29,142.0
39.3,124.0
39.31,106.0
39.32,134.0
39.33,119.0
39.34,113.0
39.35,116.0
39.36,110.0
39.37,80.0
39.38,130.0
39.39,113.0
39.4,110.0
39.41,117.0
39.42,98.0
39.43,105.0
39.44,95.0
39.45,109.0
39.46,76.0
39.47,91.0
39.48,88.0
39.49,85.0
39.5,87.0
39.51,86.0
39.52,77.0
39.53,84.0
39.54,78.0
39.55,95.0
39.56,100.0
39.57,75.0
39.58,91.0
39.59,87.0
39.6,83.0
39.61,97.0
39.62,64.0
39.63,97.0
39.64,81.0
39.65,69.0
39.66,72.0
39.67,78.0
39.68,70.0
39.69,70.0
39.7,93.0
39.71,71.0
39.72,73.0
39.73,84.0
39.74,86.0
39.75,70.0
39.76,88.0
39.77,83.0
39.78,89.0
39.79,81.0
39.8,77.0
39.81,71.0
39.82,73.0
39.83,69.0
39.84,76.0
39.85,86.0
39.86,86.0
39.87,60.0
39.88,66.0
39.89,84.0
39.9,76.0
39.91,60.0
39.92,76.0
39.93,70.0
39.94,79.0
39.95,75.0
39.96,83.0
39.97,70.0
39.98,72.0
39.99,69.0
40.0,80.0
40.01,82.0
40.02,60.0
40.03,71.0
40.04,68.0
40.05,76.0
40.06,76.0
40.07,78.0
40.08,70.0
40.09,99.0
40.1,85.0
40.11,68.0
40.12,89.0
40.13,90.0
40.14,87.0
40.15,93.0
40.16,75.0
40.17,70.0
40.18,85.0
40.19,83.0
40.2,56.0
40.21,69.0
40.22,60.0
40.23,71.0
40.24,83.0
40.25,65.0
40.26,65.0
40.27,70.0
40.28,70.0
40.29,63.0
40.3,76.0
40.31,80.0
40.32,61.0
40.33,58.0
40.34,84.0
40.35,87.0
40.36,101.0
40.37,67.0
40.38,72.0
40.39,100.0
40.4,74.0
40.41,78.0
40.42,87.0
40.43,78.0
40.44,79.0
40.45,90.0
40.46,80.0
40.47,84.0
40.48,84.0
40.49,90.0
40.5,83.0
40.51,77.0
40.52,99.0
40.53,77.0
40.54,106.0
40.55,77.0
40.56,101.0
40.57,129.0
40.58,99.0
40.59,96.0
40.6,106.0
40.61,108.0
40.62,116.0
40.63,119.0
40.64,96.0
40.65,91.0
40.66,100.0
40.67,95.0
40.68,85.0
40.69,88.0
40.7,90.0
40.71,103.0
40.72,88.0
40.73,100.0
40.74,85.0
40.75,98.0
40.76,100.0
40.77,92.0
40.78,88.0
40.79,84.0
40.8,77.0
40.81,83.0
40.82,71.0
40.83,55.0
40.84,82.0
40.85,92.0
40.86,84.0
40.87,72.0
40.88,65.0
40.89,84.0
40.9,86.0
40.91,68.0
40.92,62.0
40.93,98.0
40.94,65.0
40.95,87.0
40.96,107.0
40.97,77.0
40.98,94.0
40.99,86.0
41.0,82.0
41.01,96.0
41.02,86.0
41.03,66.0
41.04,80.0
41.05,91.0
41.06,89.0
41.07,79.0
41.08,86.0
41.09,73.0
41.1,78.0
41.11,87.0
41.12,77.0
41.13,71.0
41.14,80.0
41.15,72.0
41.16,95.0
41.17,73.0
41.18,82.0
41.19,76.0
41.2,103.0
41.21,81.0
41.22,96.0
41.23,81.0
41.24,75.0
41.25,98.0
41.26,94.0
41.27,81.0
41.28,110.0
41.29,75.0
41.3,90.0
41.31,94.0
41.32,90.0
41.33,99.0
41.34,96.0
41.35,113.0
41.36,101.0
41.37,104.0
41.38,115.0
41.39,103.0
41.4,104.0
41.41,117.0
41.42,123.0
41.43,115.0
41.44,112.0
41.45,106.0
41.46,118.0
41.47,128.0
41.48,113.0
41.49,110.0
41.5,122.0
41.51,96.0
41.52,95.0
41.53,104.0
41.54,112.0
41.55,97.0
41.56,98.0
41.57,84.0
41.58,101.0
41.59,93.0
41.6,85.0
41.61,84.0
41.62,86.0
41.63,100.0
41.64,83.0
41.65,85.0
41.66,89.0
41.67,94.0
41.68,81.0
41.69,73.0
41.7,86.0
41.71,83.0
41.72,70.0
41.73,97.0
41.74,83.0
41.75,89.0
41.76,86.0
41.77,89.0
41.78,76.0
41.79,69.0
41.8,82.0
41.81,65.0
41.82,103.0
41.83,69.0
41.84,83.0
41.85,85.0
41.86,90.0
41.87,91.0
41.88,56.0
41.89,71.0
41.9,82.0
41.91,78.0
41.92,61.0
41.93,77.0
41.94,86.0
41.95,79.0
41.96,74.0
41.97,111.0
41.98,67.0
41.99,85.0
42.0,90.0
42.01,81.0
42.02,87.0
42.03,90.0
42.04,89.0
42.05,65.0
42.06,54.0
42.07,88.0
42.08,83.0
42.09,64.0
42.1,68.0
42.11,78.0
42.12,86.0
42.13,80.0
42.14,71.0
42.15,71.0
42.16,71.0
42.17,84.0
42.18,68.0
42.19,90.0
42.2,69.0
42.21,74.0
42.22,72.0
42.23,69.0
42.24,74.0
42.25,69.0
42.26,81.0
42.27,67.0
42.28,84.0
42.29,54.0
42.3,70.0
42.31,82.0
42.32,80.0
42.33,73.0
42.34,85.0
42.35,59.0
42.36,78.0
42.37,70.0
42.38,86.0
42.39,61.0
42.4,70.0
42.41,77.0
42.42,70.0
42.43,92.0
42.44,79.0
42.45,83.0
42.46,79.0
42.47,88.0
42.48,70.0
42.49,77.0
42.5,66.0
42.51,62.0
42.52,71.0
42.53,69.0
42.54,67.0
42.55,66.0
42.56,65.0
42.57,58.0
42.58,67.0
42.59,85.0
42.6,77.0
42.61,85.0
42.62,68.0
42.63,83.0
42.64,57.0
42.65,66.0
42.66,85.0
42.67,62.0
42.68,80.0
42.69,78.0
42.7,82.0
42.71,82.0
42.72,77.0
42.73,76.0
42.74,68.0
42.75,72.0
42.76,71.0
42.77,82.0
42.78,81.0
42.79,85.0
42.8,66.0
42.81,77.0
42.82,86.0
42.83,89.0
42.84,73.0
42.85,62.0
42.86,69.0
42.87,59.0
42.88,72.0
42.89,70.0
42.9,70.0
42.91,86.0
42.92,72.0
42.93,63.0
42.94,79.0
42.95,84.0
42.96,74.0
42.97,78.0
42.98,73.0
42.99,87.0
43.0,58.0
43.01,85.0
43.02,89.0
43.03,81.0
43.04,84.0
43.05,79.0
43.06,70.0
43.07,73.0
43.08,72.0
43.09,85.0
43.1,90.0
43.11,64.0
43.12,65.0
43.13,80.0
43.14,84.0
43.15,81.0
43.16,65.0
43.17,78.0
43.18,65.0
43.19,90.0
43.2,58.0
43.21,84.0
43.22,79.0
43.23,65.0
43.24,89.0
43.25,78.0
43.26,82.0
43.27,76.0
43.28,105.0
43.29,81.0
43.3,98.0
43.31,75.0
43.32,88.0
43.33,76.0
43.34,103.0
43.35,86.0
43.36,84.0
43.37,81.0
43.38,71.0
43.39,85.0
43.4,74.0
43.41,90.0
43.42,91.0
43.43,90.0
43.44,114.0
43.45,90.0
43.46,91.0
43.47,103.0
43.48,98.0
43.49,96.0
43.5,114.0
43.51,97.0
43.52,102.0
43.53,94.0
43.54,94.0
43.55,111.0
43.56,112.0
43.57,83.0
43.58,103.0
43.59,88.0
43.6,111.0
43.61,98.0
43.62,113.0
43.63,121.0
43.64,104.0
43.65,115.0
43.66,118.0
43.67,106.0
43.68,114.0
43.69,102.0
43.7,114.0
43.71,100.0
43.72,106.0
43.73,128.0
43.74,144.0
43.75,132.0
43.76,136.0
43.77,140.0
43.78,143.0
43.79,139.0
43.8,135.0
43.81,126.0
43.82,115.0
43.83,119.0
43.84,157.0
43.85,110.0
43.86,117.0
43.87,125.0
43.88,121.0
43.89,110.0
43.9,91.0
43.91,119.0
43.92,101.0
43.93,114.0
43.94,113.0
43.95,119.0
43.96,109.0
43.97,94.0
43.98,93.0
43.99,101.0
44.0,80.0
44.01,99.0
44.02,79.0
44.03,79.0
44.04,89.0
44.05,91.0
44.06,86.0
44.07,92.0
44.08,77.0
44.09,91.0
44.1,71.0
44.11,77.0
44.12,72.0
44.13,80.0
44.14,59.0
44.15,79.0
44.16,85.0
44.17,78.0
44.18,90.0
44.19,80.0
44.2,69.0
44.21,73.0
44.22,93.0
44.23,74.0
44.24,88.0
44.25,81.0
44.26,101.0
44.27,86.0
44.28,72.0
44.29,75.0
44.3,74.0
44.31,69.0
44.32,81.0
44.33,88.0
44.34,77.0
44.35,86.0
44.36,76.0
44.37,75.0
44.38,82.0
44.39,92.0
44.4,76.0
44.41,77.0
44.42,72.0
44.43,97.0
44.44,93.0
44.45,86.0
44.46,75.0
44.47,80.0
44.48,76.0
44.49,84.0
44.5,75.0
44.51,93.0
44.52,76.0
44.53,80.0
44.54,77.0
44.55,77.0
44.56,81.0
44.57,76.0
44.58,84.0
44.59,92.0
44.6,59.0
44.61,76.0
44.62,82.0
44.63,60.0
44.64,61.0
44.65,76.0
44.66,76.0
44.67,101.0
44.68,81.0
44.69,93.0
44.7,82.0
44.71,65.0
44.72,76.0
44.73,90.0
44.74,70.0
44.75,80.0
44.76,86.0
44.77,77.0
44.78,77.0
44.79,69.0
44.8,81.0
44.81,62.0
44.82,81.0
44.83,79.0
44.84,87.0
44.85,72.0
44.86,65.0
44.87,102.0
44.88,103.0
44.89,84.0
44.9,90.0
44.91,67.0
44.92,82.0
44.93,79.0
44.94,73.0
44.95,80.0
44.96,70.0
44.97,87.0
44.98,74.0
44.99,78.0
45.0,83.0
45.01,81.0
45.02,76.0
45.03,70.0
45.04,70.0
45.05,72.0
45.06,79.0
45.07,74.0
45.08,75.0
45.09,64.0
45.1,79.0
45.11,73.0
45.12,100.0
45.13,71.0
45.14,66.0
45.15,78.0
45.16,70.0
45.17,79.0
45.18,84.0
45.19,73.0
45.2,85.0
45.21,84.0
45.22,76.0
45.23,71.0
45.24,71.0
45.25,83.0
45.26,101.0
45.27,68.0
45.28,66.0
45.29,94.0
45.3,73.0
45.31,87.0
45.32,87.0
45.33,81.0
45.34,87.0
45.35,84.0
45.36,96.0
45.37,100.0
45.38,98.0
45.39,89.0
45.4,96.0
45.41,89.0
45.42,92.0
45.43,102.0
45.44,95.0
45.45,90.0
45.46,86.0
45.47,93.0
45.48,87.0
45.49,89.0
45.5,88.0
45.51,101.0
45.52,96.0
45.53,98.0
45.54,83.0
45.55,83.0
45.56,86.0
45.57,78.0
45.58,82.0
45.59,100.0
45.6,85.0
45.61,69.0
45.62,76.0
45.63,86.0
45.64,79.0
45.65,72.0
45.66,104.0
45.67,81.0
45.68,80.0
45.69,102.0
45.7,81.0
45.71,80.0
45.72,82.0
45.73,105.0
45.74,61.0
45.75,90.0
45.76,62.0
45.77,80.0
45.78,92.0
45.79,73.0
45.8,76.0
45.81,81.0
45.82,64.0
45.83,86.0
45.84,77.0
45.85,88.0
45.86,88.0
45.87,89.0
45.88,93.0
45.89,63.0
45.9,83.0
45.91,85.0
45.92,71.0
45.93,99.0
45.94,70.0
45.95,107.0
45.96,83.0
45.97,90.0
45.98,100.0
45.99,91.0
46.0,71.0
46.01,95.0
46.02,94.0
46.03,98.0
46.04,101.0
46.05,78.0
46.06,94.0
46.07,99.0
46.08,94.0
46.09,98.0
46.1,92.0
46.11,97.0
46.12,94.0
46.13,108.0
46.14,86.0
46.15,118.0
46.16,98.0
46.17,94.0
46.18,101.0
46.19,99.0
46.2,82.0
46.21,94.0
46.22,70.0
46.23,97.0
46.24,92.0
46.25,76.0
46.26,81.0
46.27,92.0
46.28,87.0
46.29,83.0
46.3,84.0
46.31,90.0
46.32,84.0
46.33,76.0
46.34,74.0
46.35,87.0
46.36,98.0
46.37,91.0
46.38,80.0
46.39,76.0
46.4,102.0
46.41,75.0
46.42,75.0
46.43,74.0
46.44,70.0
46.45,89.0
46.46,80.0
46.47,74.0
46.48,96.0
46.49,70.0
46.5,85.0
46.51,76.0
46.52,88.0
46.53,100.0
46.54,75.0
46.55,90.0
46.56,74.0
46.57,87.0
46.58,72.0
46.59,71.0
46.6,85.0
46.61,88.0
46.62,111.0
46.63,86.0
46.64,84.0
46.65,92.0
46.66,102.0
46.67,91.0
46.68,110.0
46.69,95.0
46.7,104.0
46.71,82.0
46.72,122.0
46.73,113.0
46.74,102.0
46.75,105.0
46.76,96.0
46.77,99.0
46.78,105.0
46.79,102.0
46.8,98.0
46.81,99.0
46.82,94.0
46.83,103.0
46.84,117.0
46.85,118.0
46.86,103.0
46.87,95.0
46.88,94.0
46.89,117.0
46.9,111.0
46.91,109.0
46.92,117.0
46.93,111.0
46.94,98.0
46.95,86.0
46.96,98.0
46.97,99.0
46.98,101.0
46.99,99.0
47.0,95.0
47.01,96.0
47.02,100.0
47.03,94.0
47.04,93.0
47.05,110.0
47.06,103.0
47.07,101.0
47.08,105.0
47.09,89.0
47.1,102.0
47.11,91.0
47.12,104.0
47.13,96.0
47.14,94.0
47.15,94.0
47.16,84.0
47.17,104.0
47.18,89.0
47.19,103.0
47.2,77.0
47.21,85.0
47.22,95.0
47.23,100.0
47.24,106.0
47.25,80.0
47.26,86.0
47.27,104.0
47.28,85.0
47.29,76.0
47.3,93.0
47.31,75.0
47.32,79.0
47.33,102.0
47.34,78.0
47.35,81.0
47.36,88.0
47.37,78.0
47.38,77.0
47.39,72.0
47.4,58.0
47.41,69.0
47.42,89.0
47.43,85.0
47.44,81.0
47.45,61.0
47.46,80.0
47.47,77.0
47.48,86.0
47.49,73.0
47.5,80.0
47.51,81.0
47.52,87.0
47.53,75.0
47.54,82.0
47.55,76.0
47.56,92.0
47.57,79.0
47.58,89.0
47.59,92.0
47.6,80.0
47.61,83.0
47.62,87.0
47.63,88.0
47.64,94.0
47.65,95.0
47.66,112.0
47.67,90.0
47.68,99.0
47.69,99.0
47.7,106.0
47.71,109.0
47.72,112.0
47.73,100.0
47.74,96.0
47.75,97.0
47.76,106.0
47.77,99.0
47.78,120.0
47.79,115.0
47.8,128.0
47.81,125.0
47.82,122.0
47.83,130.0
47.84,110.0
47.85,126.0
47.86,106.0
47.87,117.0
47.88,123.0
47.89,120.0
47.9,128.0
47.91,93.0
47.92,107.0
47.93,105.0
47.94,125.0
47.95,94.0
47.96,97.0
47.97,113.0
47.98,110.0
47.99,100.0
48.0,110.0
48.01,115.0
48.02,97.0
48.03,114.0
48.04,83.0
48.05,84.0
48.06,91.0
48.07,95.0
48.08,110.0
48.09,97.0
48.1,94.0
48.11,81.0
48.12,90.0
48.13,80.0
48.14,95.0
48.15,93.0
48.16,71.0
48.17,79.0
48.18,98.0
48.19,72.0
48.2,79.0
48.21,88.0
48.22,93.0
48.23,71.0
48.24,76.0
48.25,94.0
48.26,91.0
48.27,82.0
48.28,97.0
48.29,89.0
48.3,62.0
48.31,81.0
48.32,73.0
48.33,79.0
48.34,66.0
48.35,86.0
48.36,87.0
48.37,87.0
48.38,63.0
48.39,80.0
48.4,80.0
48.41,97.0
48.42,82.0
48.43,76.0
48.44,69.0
48.45,86.0
48.46,74.0
48.47,66.0
48.48,82.0
48.49,66.0
48.5,82.0
48.51,69.0
48.52,82.0
48.53,67.0
48.54,80.0
48.55,75.0
48.56,73.0
48.57,77.0
48.58,89.0
48.59,73.0
48.6,81.0
48.61,87.0
48.62,78.0
48.63,71.0
48.64,69.0
48.65,92.0
48.66,77.0
48.67,60.0
48.68,94.0
48.69,100.0
48.7,73.0
48.71,84.0
48.72,82.0
48.73,88.0
48.74,85.0
48.75,72.0
48.76,81.0
48.77,78.0
48.78,71.0
48.79,71.0
48.8,80.0
48.81,73.0
48.82,63.0
48.83,62.0
48.84,81.0
48.85,81.0
48.86,79.0
48.87,81.0
48.88,98.0
48.89,85.0
48.9,80.0
48.91,76.0
48.92,83.0
48.93,79.0
48.94,85.0
48.95,80.0
48.96,63.0
48.97,69.0
48.98,103.0
48.99,65.0
49.0,75.0
49.01,92.0
49.02,70.0
49.03,64.0
49.04,67.0
49.05,88.0
49.06,64.0
49.07,71.0
49.08,73.0
49.09,78.0
49.1,86.0
49.11,70.0
49.12,87.0
49.13,75.0
49.14,67.0
49.15,75.0
49.16,80.0
49.17,79.0
49.18,85.0
49.19,80.0
49.2,72.0
49.21,58.0
49.22,68.0
49.23,68.0
49.24,84.0
49.25,82.0
49.26,85.0
49.27,89.0
49.28,81.0
49.29,74.0
49.3,76.0
49.31,78.0
49.32,62.0
49.33,70.0
49.34,71.0
49.35,91.0
49.36,66.0
49.37,88.0
49.38,82.0
49.39,97.0
49.4,84.0
49.41,71.0
49.42,85.0
49.43,72.0
49.44,71.0
49.45,95.0
49.46,93.0
49.47,74.0
49.48,73.0
49.49,90.0
49.5,63.0
49.51,72.0
49.52,80.0
49.53,67.0
49.54,73.0
49.55,65.0
49.56,78.0
49.57,67.0
49.58,79.0
49.59,90.0
49.6,71.0
49.61,74.0
49.62,81.0
49.63,84.0
49.64,83.0
49.65,68.0
49.66,74.0
49.67,59.0
49.68,74.0
49.69,85.0
49.7,76.0
49.71,91.0
49.72,75.0
49.73,78.0
49.74,82.0
49.75,83.0
49.76,80.0
49.77,78.0
49.78,77.0
49.79,75.0
49.8,93.0
49.81,88.0
49.82,87.0
49.83,80.0
49.84,87.0
49.85,81.0
49.86,75.0
49.87,101.0
49.88,70.0
49.89,91.0
49.9,87.0
49.91,105.0
49.92,87.0
49.93,89.0
49.94,84.0
49.95,82.0
49.96,98.0
49.97,63.0
49.98,90.0
49.99,91.0
50.0,76.0
50.01,79.0
50.02,89.0
50.03,73.0
50.04,84.0
50.05,72.0
50.06,79.0
50.07,84.0
50.08,84.0
50.09,92.0
50.1,105.0
50.11,80.0
50.12,76.0
50.13,87.0
50.14,83.0
50.15,77.0
50.16,67.0
50.17,84.0
50.18,74.0
50.19,77.0
50.2,78.0
50.21,64.0
50.22,79.0
50.23,79.0
50.24,66.0
50.25,68.0
50.26,91.0
50.27,77.0
50.28,76.0
50.29,71.0
50.3,75.0
50.31,63.0
50.32,74.0
50.33,62.0
50.34,57.0
50.35,81.0
50.36,85.0
50.37,86.0
50.38,68.0
50.39,78.0
50.4,84.0
50.41,70.0
50.42,72.0
50.43,83.0
50.44,72.0
50.45,83.0
50.46,93.0
50.47,69.0
50.48,61.0
50.49,68.0
50.5,68.0
50.51,69.0
50.52,77.0
50.53,92.0
50.54,90.0
50.55,82.0
50.56,79.0
50.57,87.0
50.58,80.0
50.59,82.0
50.6,81.0
50.61,65.0
50.62,64.0
50.63,83.0
50.64,65.0
50.65,70.0
50.66,77.0
50.67,75.0
50.68,79.0
50.69,69.0
50.7,72.0
50.71,72.0
50.72,76.0
50.73,56.0
50.74,79.0
50.75,75.0
50.76,66.0
50.77,72.0
50.78,73.0
50.79,75.0
50.8,86.0
50.81,76.0
50.82,70.0
50.83,59.0
50.84,88.0
50.85,75.0
50.86,65.0
50.87,76.0
50.88,98.0
50.89,73.0
50.9,65.0
50.91,80.0
50.92,63.0
50.93,70.0
50.94,96.0
50.95,73.0
50.96,87.0
50.97,72.0
50.98,74.0
50.99,61.0
51.0,60.0
51.01,72.0
51.02,84.0
51.03,58.0
51.04,85.0
51.05,67.0
51.06,68.0
51.07,94.0
51.08,65.0
51.09,100.0
51.1,74.0
51.11,73.0
51.12,81.0
51.13,71.0
51.14,89.0
51.15,82.0
51.16,81.0
51.17,86.0
51.18,84.0
51.19,95.0
51.2,85.0
51.21,77.0
51.22,84.0
51.23,85.0
51.24,93.0
51.25,86.0
51.26,85.0
51.27,74.0
51.28,79.0
51.29,72.0
51.3,100.0
51.31,102.0
51.32,89.0
51.33,97.0
51.34,81.0
51.35,107.0
51.36,93.0
51.37,82.0
51.38,74.0
51.39,91.0
51.4,87.0
51.41,87.0
51.42,89.0
51.43,96.0
51.44,83.0
51.45,83.0
51.46,86.0
51.47,94.0
51.48,73.0
51.49,72.0
51.5,71.0
51.51,86.0
51.52,72.0
51.53,84.0
51.54,86.0
51.55,90.0
51.56,78.0
51.57,96.0
51.58,66.0
51.59,77.0
51.6,77.0
51.61,68.0
51.62,79.0
51.63,78.0
51.64,88.0
51.65,57.0
51.66,84.0
51.67,94.0
51.68,83.0
51.69,66.0
51.7,79.0
51.71,84.0
51.72,69.0
51.73,81.0
51.74,91.0
51.75,89.0
51.76,87.0
51.77,74.0
51.78,88.0
51.79,91.0
51.8,89.0
51.81,97.0
51.82,66.0
51.83,88.0
51.84,80.0
51.85,95.0
51.86,73.0
51.87,78.0
51.88,90.0
51.89,82.0
51.9,122.0
51.91,118.0
51.92,108.0
51.93,100.0
51.94,110.0
51.95,114.0
51.96,98.0
51.97,98.0
51.98,87.0
51.99,103.0
52.0,108.0
52.01,93.0
52.02,95.0
52.03,94.0
52.04,83.0
52.05,91.0
52.06,104.0
52.07,84.0
52.08,92.0
52.09,73.0
52.1,98.0
52.11,91.0
52.12,86.0
52.13,87.0
52.14,92.0
52.15,77.0
52.16,80.0
52.17,100.0
52.18,88.0
52.19,84.0
52.2,72.0
52.21,95.0
52.22,66.0
52.23,74.0
52.24,72.0
52.25,56.0
52.26,77.0
52.27,86.0
52.28,69.0
52.29,90.0
52.3,75.0
52.31,88.0
52.32,80.0
52.33,81.0
52.34,78.0
52.35,69.0
52.36,82.0
52.37,80.0
52.38,77.0
52.39,77.0
52.4,73.0
52.41,94.0
52.42,84.0
52.43,70.0
52.44,79.0
52.45,86.0
52.46,79.0
52.47,71.0
52.48,74.0
52.49,66.0
52.5,80.0
52.51,76.0
52.52,74.0
52.53,74.0
52.54,72.0
52.55,100.0
52.56,81.0
52.57,85.0
52.58,68.0
52.59,80.0
52.6,87.0
52.61,87.0
52.62,85.0
52.63,63.0
52.64,91.0
52.65,79.0
52.66,73.0
52.67,77.0
52.68,66.0
52.69,49.0
52.7,72.0
52.71,86.0
52.72,70.0
52.73,61.0
52.74,72.0
52.75,66.0
52.76,79.0
52.77,72.0
52.78,64.0
52.79,72.0
52.8,59.0
52.81,86.0
52.82,89.0
52.83,79.0
52.84,78.0
52.85,80.0
52.86,80.0
52.87,83.0
52.88,88.0
52.89,75.0
52.9,62.0
52.91,80.0
52.92,68.0
52.93,79.0
52.94,79.0
52.95,75.0
52.96,77.0
52.97,81.0
52.98,95.0
52.99,97.0
53.0,76.0
53.01,75.0
53.02,87.0
53.03,86.0
53.04,85.0
53.05,75.0
53.06,96.0
53.07,83.0
53.08,77.0
53.09,85.0
53.1,69.0
53.11,71.0
53.12,62.0
53.13,63.0
53.14,73.0
53.15,67.0
53.16,78.0
53.17,75.0
53.18,78.0
53.19,78.0
53.2,88.0
53.21,60.0
53.22,77.0
53.23,77.0
53.24,72.0
53.25,85.0
53.26,71.0
53.27,66.0
53.28,82.0
53.29,59.0
53.3,74.0
53.31,90.0
53.32,66.0
53.33,80.0
53.34,82.0
53.35,79.0
53.36,75.0
53.37,76.0
53.38,69.0
53.39,60.0
53.4,89.0
53.41,77.0
53.42,87.0
53.43,86.0
53.44,86.0
53.45,71.0
53.46,89.0
53.47,66.0
53.48,68.0
53.49,85.0
53.5,92.0
53.51,87.0
53.52,98.0
53.53,75.0
53.54,54.0
53.55,80.0
53.56,80.0
53.57,72.0
53.58,89.0
53.59,72.0
53.6,76.0
53.61,87.0
53.62,97.0
53.63,78.0
53.64,103.0
53.65,76.0
53.66,70.0
53.67,74.0
53.68,76.0
53.69,72.0
53.7,80.0
53.71,91.0
53.72,85.0
53.73,78.0
53.74,70.0
53.75,86.0
53.76,100.0
53.77,83.0
53.78,87.0
53.79,69.0
53.8,73.0
53.81,75.0
53.82,68.0
53.83,78.0
53.84,78.0
53.85,68.0
53.86,75.0
53.87,68.0
53.88,91.0
53.89,85.0
53.9,66.0
53.91,89.0
53.92,85.0
53.93,71.0
53.94,86.0
53.95,71.0
53.96,85.0
53.97,78.0
53.98,79.0
53.99,80.0
54.0,69.0
54.01,81.0
54.02,83.0
54.03,83.0
54.04,86.0
54.05,90.0
54.06,88.0
54.07,81.0
54.08,83.0
54.09,65.0
54.1,93.0
54.11,91.0
54.12,81.0
54.13,76.0
54.14,97.0
54.15,81.0
54.16,94.0
54.17,79.0
54.18,78.0
54.19,86.0
54.2,78.0
54.21,79.0
54.22,79.0
54.23,77.0
54.24,84.0
54.25,86.0
54.26,71.0
54.27,73.0
54.28,94.0
54.29,94.0
54.3,72.0
54.31,89.0
54.32,70.0
54.33,79.0
54.34,68.0
54.35,87.0
54.36,94.0
54.37,83.0
54.38,83.0
54.39,95.0
54.4,72.0
54.41,86.0
54.42,90.0
54.43,68.0
54.44,75.0
54.45,84.0
54.46,70.0
54.47,91.0
54.48,98.0
54.49,84.0
54.5,77.0
54.51,73.0
54.52,84.0
54.53,81.0
54.54,98.0
54.55,98.0
54.56,93.0
54.57,86.0
54.58,92.0
54.59,96.0
54.6,99.0
54.61,74.0
54.62,97.0
54.63,96.0
54.64,86.0
54.65,95.0
54.66,105.0
54.67,107.0
54.68,79.0
54.69,104.0
54.7,101.0
54.71,81.0
54.72,104.0
54.73,110.0
54.74,79.0
54.75,107.0
54.76,111.0
54.77,106.0
54.78,96.0
54.79,124.0
54.8,122.0
54.81,106.0
54.82,101.0
54.83,135.0
54.84,133.0
54.85,117.0
54.86,121.0
54.87,96.0
54.88,101.0
54.89,101.0
54.9,112.0
54.91,107.0
54.92,122.0
54.93,114.0
54.94,114.0
54.95,113.0
54.96,107.0
54.97,115.0
54.98,140.0
54.99,133.0
55.0,137.0
55.01,135.0
55.02,131.0
55.03,134.0
55.04,162.0
55.05,140.0
55.06,158.0
55.07,141.0
55.08,157.0
55.09,166.0
55.1,148.0
55.11,177.0
55.12,135.0
55.13,177.0
55.14,143.0
55.15,163.0
55.16,151.0
55.17,130.0
55.18,132.0
55.19,146.0
55.2,142.0
55.21,132.0
55.22,118.0
55.23,110.0
55.24,122.0
55.25,142.0
55.26,126.0
55.27,140.0
55.28,119.0
55.29,128.0
55.3,122.0
55.31,126.0
55.32,125.0
55.33,123.0
55.34,103.0
55.35,90.0
55.36,99.0
55.37,104.0
55.38,104.0
55.39,93.0
55.4,94.0
55.41,97.0
55.42,82.0
55.43,106.0
55.44,109.0
55.45,119.0
55.46,94.0
55.47,100.0
55.48,95.0
55.49,104.0
55.5,111.0
55.51,108.0
55.52,108.0
55.53,117.0
55.54,121.0
55.55,108.0
55.56,120.0
55.57,116.0
55.58,109.0
55.59,122.0
55.6,144.0
55.61,120.0
55.62,134.0
55.63,130.0
55.64,149.0
55.65,124.0
55.66,114.0
55.67,128.0
55.68,127.0
55.69,125.0
55.7,124.0
55.71,117.0
55.72,117.0
55.73,115.0
55.74,110.0
55.75,116.0
55.76,115.0
55.77,125.0
55.78,123.0
55.79,123.0
55.8,114.0
55.81,110.0
55.82,140.0
55.83,119.0
55.84,134.0
55.85,128.0
55.86,106.0
55.87,122.0
55.88,121.0
55.89,131.0
55.9,122.0
55.91,124.0
55.92,124.0
55.93,130.0
55.94,122.0
55.95,114.0
55.96,117.0
55.97,127.0
55.98,110.0
55.99,119.0
56.0,116.0
56.01,102.0
56.02,118.0
56.03,115.0
56.04,100.0
56.05,113.0
56.06,129.0
56.07,100.0
56.08,114.0
56.09,95.0
56.1,113.0
56.11,115.0
56.12,108.0
56.13,97.0
56.14,92.0
56.15,106.0
56.16,84.0
56.17,90.0
56.18,97.0
56.19,101.0
56.2,88.0
56.21,100.0
56.22,105.0
56.23,86.0
56.24,94.0
56.25,105.0
56.26,99.0
56.27,95.0
56.28,81.0
56.29,91.0
56.3,82.0
56.31,107.0
56.32,91.0
56.33,83.0
56.34,71.0
56.35,73.0
56.36,81.0
56.37,78.0
56.38,98.0
56.39,94.0
56.4,84.0
56.41,82.0
56.42,78.0
56.43,83.0
56.44,76.0
56.45,82.0
56.46,80.0
56.47,79.0
56.48,85.0
56.49,88.0
56.5,98.0
56.51,73.0
56.52,57.0
56.53,76.0
56.54,61.0
56.55,79.0
56.56,77.0
56.57,83.0
56.58,75.0
56.59,77.0
56.6,81.0
56.61,98.0
56.62,79.0
56.63,96.0
56.64,68.0
56.65,62.0
56.66,57.0
56.67,80.0
56.68,81.0
56.69,71.0
56.7,89.0
56.71,63.0
56.72,67.0
56.73,73.0
56.74,94.0
56.75,101.0
56.76,80.0
56.77,77.0
56.78,73.0
56.79,62.0
56.8,85.0
56.81,86.0
56.82,81.0
56.83,90.0
56.84,91.0
56.85,77.0
56.86,86.0
56.87,98.0
56.88,82.0
56.89,87.0
56.9,78.0
56.91,84.0
56.92,88.0
56.93,79.0
56.94,93.0
56.95,73.0
56.96,74.0
56.97,75.0
56.98,71.0
56.99,76.0
57.0,80.0
57.01,90.0
57.02,87.0
57.03,73.0
57.04,103.0
57.05,75.0
57.06,71.0
57.07,84.0
57.08,82.0
57.09,105.0
57.1,84.0
57.11,85.0
57.12,81.0
57.13,76.0
57.14,69.0
57.15,93.0
57.16,80.0
57.17,91.0
57.18,98.0
57.19,104.0
57.2,81.0
57.21,95.0
57.22,106.0
57.23,70.0
57.24,82.0
57.25,91.0
57.26,82.0
57.27,91.0
57.28,92.0
57.29,90.0
57.3,94.0
57.31,89.0
57.32,97.0
57.33,71.0
57.34,114.0
57.35,90.0
57.36,88.0
57.37,92.0
57.38,99.0
57.39,87.0
57.4,84.0
57.41,98.0
57.42,98.0
57.43,98.0
57.44,88.0
57.45,98.0
57.46,98.0
57.47,94.0
57.48,122.0
57.49,100.0
57.5,113.0
57.51,99.0
57.52,98.0
57.53,90.0
57.54,101.0
57.55,103.0
57.56,102.0
57.57,109.0
57.58,70.0
57.59,104.0
57.6,104.0
57.61,100.0
57.62,114.0
57.63,84.0
57.64,80.0
57.65,99.0
57.66,105.0
57.67,80.0
57.68,87.0
57.69,112.0
57.7,86.0
57.71,81.0
57.72,84.0
57.73,81.0
57.74,81.0
57.75,102.0
57.76,95.0
57.77,96.0
57.78,115.0
57.79,89.0
57.8,89.0
57.81,87.0
57.82,90.0
57.83,74.0
57.84,90.0
57.85,115.0
57.86,105.0
57.87,85.0
57.88,98.0
57.89,92.0
57.9,86.0
57.91,89.0
57.92,101.0
57.93,94.0
57.94,106.0
57.95,100.0
57.96,81.0
57.97,101.0
57.98,93.0
57.99,98.0
58.0,91.0
58.01,96.0
58.02,92.0
58.03,93.0
58.04,93.0
58.05,97.0
58.06,99.0
58.07,86.0
58.08,87.0
58.09,87.0
58.1,98.0
58.11,91.0
58.12,88.0
58.13,83.0
58.14,80.0
58.15,87.0
58.16,92.0
58.17,69.0
58.18,96.0
58.19,84.0
58.2,98.0
58.21,101.0
58.22,93.0
58.23,83.0
58.24,84.0
58.25,90.0
58.26,107.0
58.27,109.0
58.28,82.0
58.29,80.0
58.3,82.0
58.31,83.0
58.32,82.0
58.33,79.0
58.34,90.0
58.35,79.0
58.36,70.0
58.37,83.0
58.38,79.0
58.39,76.0
58.4,90.0
58.41,99.0
58.42,84.0
58.43,114.0
58.44,83.0
58.45,79.0
58.46,77.0
58.47,72.0
58.48,71.0
58.49,85.0
58.5,79.0
58.51,75.0
58.52,81.0
58.53,62.0
58.54,78.0
58.55,79.0
58.56,76.0
58.57,73.0
58.58,96.0
58.59,76.0
58.6,73.0
58.61,71.0
58.62,82.0
58.63,70.0
58.64,68.0
58.65,71.0
58.66,77.0
58.67,63.0
58.68,73.0
58.69,71.0
58.7,77.0
58.71,82.0
58.72,92.0
58.73,71.0
58.74,86.0
58.75,86.0
58.76,87.0
58.77,80.0
58.78,66.0
58.79,91.0
58.8,61.0
58.81,75.0
58.82,86.0
58.83,72.0
58.84,87.0
58.85,68.0
58.86,77.0
58.87,86.0
58.88,92.0
58.89,83.0
58.9,75.0
58.91,82.0
58.92,84.0
58.93,95.0
58.94,90.0
58.95,86.0
58.96,95.0
58.97,75.0
58.98,58.0
58.99,84.0
59.0,92.0
59.01,84.0
59.02,80.0
59.03,73.0
59.04,88.0
59.05,86.0
59.06,72.0
59.07,90.0
59.08,87.0
59.09,73.0
59.1,81.0
59.11,80.0
59.12,91.0
59.13,74.0
59.14,72.0
59.15,80.0
59.16,80.0
59.17,80.0
59.18,84.0
59.19,76.0
59.2,65.0
59.21,76.0
59.22,72.0
59.23,75.0
59.24,90.0
59.25,87.0
59.26,62.0
59.27,79.0
59.28,92.0
59.29,67.0
59.3,77.0
59.31,71.0
59.32,71.0
59.33,99.0
59.34,82.0
59.35,92.0
59.36,78.0
59.37,79.0
59.38,77.0
59.39,83.0
59.4,81.0
59.41,95.0
59.42,90.0
59.43,78.0
59.44,72.0
59.45,94.0
59.46,100.0
59.47,90.0
59.48,91.0
59.49,89.0
59.5,74.0
59.51,83.0
59.52,95.0
59.53,95.0
59.54,99.0
59.55,94.0
59.56,81.0
59.57,81.0
59.58,95.0
59.59,88.0
59.6,103.0
59.61,113.0
59.62,96.0
59.63,102.0
59.64,98.0
59.65,83.0
59.66,86.0
59.67,80.0
59.68,90.0
59.69,82.0
59.7,84.0
59.71,81.0
59.72,85.0
59.73,63.0
59.74,71.0
59.75,83.0
59.76,96.0
59.77,81.0
59.78,77.0
59.79,99.0
59.8,96.0
59.81,61.0
59.82,87.0
59.83,72.0
59.84,77.0
59.85,68.0
59.86,79.0
59.87,79.0
59.88,84.0
59.89,82.0
59.9,96.0
59.91,79.0
59.92,68.0
59.93,78.0
59.94,85.0
59.95,64.0
59.96,76.0
59.97,89.0
59.98,96.0
59.99,73.0
60.0,89.0
60.01,99.0
60.02,97.0
60.03,75.0
60.04,81.0
60.05,64.0
60.06,84.0
60.07,106.0
60.08,77.0
60.09,88.0
60.1,62.0
60.11,69.0
60.12,92.0
60.13,90.0
60.14,81.0
60.15,77.0
60.16,89.0
60.17,91.0
60.18,87.0
60.19,75.0
60.2,85.0
60.21,79.0
60.22,70.0
60.23,80.0
60.24,94.0
60.25,71.0
60.26,102.0
60.27,72.0
60.28,68.0
60.29,93.0
60.3,99.0
60.31,84.0
60.32,86.0
60.33,97.0
60.34,84.0
60.35,94.0
60.36,99.0
60.37,82.0
60.38,89.0
60.39,85.0
60.4,102.0
60.41,97.0
60.42,104.0
60.43,105.0
60.44,84.0
60.45,91.0
60.46,83.0
60.47,105.0
60.48,98.0
60.49,90.0
60.5,89.0
60.51,92.0
60.52,95.0
60.53,77.0
60.54,86.0
60.55,88.0
60.56,83.0
60.57,89.0
60.58,86.0
60.59,86.0
60.6,82.0
60.61,98.0
60.62,101.0
60.63,93.0
60.64,73.0
60.65,106.0
60.66,94.0
60.67,84.0
60.68,93.0
60.69,81.0
60.7,85.0
60.71,85.0
60.72,93.0
60.73,83.0
60.74,76.0
60.75,70.0
60.76,88.0
60.77,91.0
60.78,84.0
60.79,75.0
60.8,76.0
60.81,58.0
60.82,71.0
60.83,72.0
60.84,94.0
60.85,92.0
60.86,72.0
60.87,68.0
60.88,91.0
60.89,93.0
60.9,72.0
60.91,93.0
60.92,80.0
60.93,90.0
60.94,65.0
60.95,79.0
60.96,83.0
60.97,86.0
60.98,95.0
60.99,96.0
61.0,85.0
61.01,80.0
61.02,104.0
61.03,79.0
61.04,81.0
61.05,71.0
61.06,82.0
61.07,70.0
61.08,84.0
61.09,83.0
61.1,93.0
61.11,79.0
61.12,86.0
61.13,71.0
61.14,74.0
61.15,74.0
61.16,68.0
61.17,86.0
61.18,86.0
61.19,82.0
61.2,86.0
61.21,97.0
61.22,86.0
61.23,87.0
61.24,85.0
61.25,90.0
61.26,87.0
61.27,68.0
61.28,79.0
61.29,95.0
61.3,79.0
61.31,97.0
61.32,75.0
61.33,73.0
61.34,84.0
61.35,74.0
61.36,81.0
61.37,100.0
61.38,79.0
61.39,83.0
61.4,94.0
61.41,94.0
61.42,66.0
61.43,92.0
61.44,86.0
61.45,84.0
61.46,85.0
61.47,109.0
61.48,72.0
61.49,95.0
61.5,78.0
61.51,81.0
61.52,90.0
61.53,101.0
61.54,98.0
61.55,73.0
61.56,89.0
61.57,90.0
61.58,109.0
61.59,88.0
61.6,84.0
61.61,83.0
61.62,85.0
61.63,85.0
61.64,106.0
61.65,85.0
61.66,101.0
61.67,89.0
61.68,77.0
61.69,78.0
61.7,105.0
61.71,87.0
61.72,88.0
61.73,77.0
61.74,85.0
61.75,87.0
61.76,78.0
61.77,83.0
61.78,82.0
61.79,86.0
61.8,92.0
61.81,62.0
61.82,86.0
61.83,86.0
61.84,96.0
61.85,86.0
61.86,94.0
61.87,72.0
61.88,93.0
61.89,71.0
61.9,85.0
61.91,78.0
61.92,80.0
61.93,93.0
61.94,78.0
61.95,90.0
61.96,86.0
61.97,81.0
61.98,89.0
61.99,85.0
62.0,68.0
62.01,77.0
62.02,83.0
62.03,79.0
62.04,90.0
62.05,81.0
62.06,83.0
62.07,83.0
62.08,90.0
62.09,91.0
62.1,83.0
62.11,90.0
62.12,86.0
62.13,89.0
62.14,94.0
62.15,92.0
62.16,85.0
62.17,103.0
62.18,94.0
62.19,96.0
62.2,90.0
62.21,91.0
62.22,102.0
62.23,105.0
62.24,112.0
62.25,81.0
62.26,81.0
62.27,107.0
62.28,87.0
62.29,111.0
62.3,97.0
62.31,94.0
62.32,98.0
62.33,95.0
62.34,95.0
62.35,102.0
62.36,89.0
62.37,99.0
62.38,100.0
62.39,90.0
62.4,86.0
62.41,97.0
62.42,100.0
62.43,82.0
62.44,97.0
62.45,78.0
62.46,74.0
62.47,89.0
62.48,98.0
62.49,81.0
62.5,95.0
62.51,72.0
62.52,84.0
62.53,91.0
62.54,86.0
62.55,79.0
62.56,85.0
62.57,94.0
62.58,82.0
62.59,98.0
62.6,85.0
62.61,97.0
62.62,104.0
62.63,93.0
62.64,106.0
62.65,88.0
62.66,87.0
62.67,88.0
62.68,80.0
62.69,99.0
62.7,92.0
62.71,94.0
62.72,102.0
62.73,93.0
62.74,96.0
62.75,87.0
62.76,95.0
62.77,86.0
62.78,87.0
62.79,93.0
62.8,80.0
62.81,82.0
62.82,92.0
62.83,80.0
62.84,96.0
62.85,89.0
62.86,88.0
62.87,98.0
62.88,103.0
62.89,85.0
62.9,87.0
62.91,87.0
62.92,88.0
62.93,75.0
62.94,88.0
62.95,93.0
62.96,101.0
62.97,104.0
62.98,86.0
62.99,95.0
63.0,104.0
63.01,89.0
63.02,96.0
63.03,91.0
63.04,66.0
63.05,89.0
63.06,90.0
63.07,84.0
63.08,86.0
63.09,89.0
63.1,91.0
63.11,78.0
63.12,98.0
63.13,80.0
63.14,96.0
63.15,102.0
63.16,76.0
63.17,81.0
63.18,86.0
63.19,98.0
63.2,90.0
63.21,87.0
63.22,89.0
63.23,92.0
63.24,86.0
63.25,88.0
63.26,76.0
63.27,94.0
63.28,91.0
63.29,73.0
63.3,80.0
63.31,79.0
63.32,65.0
63.33,79.0
63.34,77.0
63.35,77.0
63.36,80.0
63.37,89.0
63.38,100.0
63.39,85.0
63.4,67.0
63.41,90.0
63.42,68.0
63.43,76.0
63.44,74.0
63.45,73.0
63.46,95.0
63.47,74.0
63.48,81.0
63.49,83.0
63.5,83.0
63.51,91.0
63.52,86.0
63.53,79.0
63.54,96.0
63.55,100.0
63.56,91.0
63.57,74.0
63.58,78.0
63.59,94.0
63.6,100.0
63.61,76.0
63.62,88.0
63.63,92.0
63.64,88.0
63.65,85.0
63.66,86.0
63.67,113.0
63.68,98.0
63.69,90.0
63.7,89.0
63.71,87.0
63.72,81.0
63.73,88.0
63.74,79.0
63.75,95.0
63.76,102.0
63.77,87.0
63.78,82.0
63.79,95.0
63.8,94.0
63.81,88.0
63.82,82.0
63.83,79.0
63.84,110.0
63.85,111.0
63.86,106.0
63.87,116.0
63.88,87.0
63.89,99.0
63.9,108.0
63.91,109.0
63.92,116.0
63.93,107.0
63.94,121.0
63.95,103.0
63.96,93.0
63.97,120.0
63.98,99.0
63.99,121.0
64.0,118.0
64.01,122.0
64.02,117.0
64.03,118.0
64.04,118.0
64.05,87.0
64.06,108.0
64.07,95.0
64.08,88.0
64.09,102.0
64.1,115.0
64.11,105.0
64.12,111.0
64.13,104.0
64.14,106.0
64.15,89.0
64.16,103.0
64.17,107.0
64.18,124.0
64.19,82.0
64.2,111.0
64.21,81.0
64.22,99.0
64.23,91.0
64.24,98.0
64.25,110.0
64.26,122.0
64.27,87.0
64.28,105.0
64.29,83.0
64.3,100.0
64.31,93.0
64.32,86.0
64.33,87.0
64.34,72.0
64.35,90.0
64.36,89.0
64.37,80.0
64.38,95.0
64.39,98.0
64.4,90.0
64.41,85.0
64.42,87.0
64.43,85.0
64.44,90.0
64.45,86.0
64.46,99.0
64.47,80.0
64.48,81.0
64.49,93.0
64.5,88.0
64.51,103.0
64.52,84.0
64.53,91.0
64.54,77.0
64.55,90.0
64.56,93.0
64.57,103.0
64.58,104.0
64.59,86.0
64.6,90.0
64.61,90.0
64.62,77.0
64.63,89.0
64.64,99.0
64.65,96.0
64.66,110.0
64.67,77.0
64.68,99.0
64.69,87.0
64.7,98.0
64.71,89.0
64.72,100.0
64.73,102.0
64.74,94.0
64.75,94.0
64.76,85.0
64.77,94.0
64.78,92.0
64.79,120.0
64.8,89.0
64.81,86.0
64.82,75.0
64.83,87.0
64.84,96.0
64.85,88.0
64.86,75.0
64.87,99.0
64.88,89.0
64.89,83.0
64.9,88.0
64.91,94.0
64.92,82.0
64.93,82.0
64.94,98.0
64.95,76.0
64.96,91.0
64.97,109.0
64.98,82.0
64.99,73.0
65.0,82.0
65.01,87.0
65.02,85.0
65.03,75.0
65.04,58.0
65.05,73.0
65.06,74.0
65.07,83.0
65.08,87.0
65.09,73.0
65.1,95.0
65.11,70.0
65.12,75.0
65.13,101.0
65.14,87.0
65.15,81.0
65.16,78.0
65.17,75.0
65.18,90.0
65.19,85.0
65.2,72.0
65.21,93.0
65.22,80.0
65.23,77.0
65.24,72.0
65.25,81.0
65.26,97.0
65.27,74.0
65.28,77.0
65.29,84.0
65.3,82.0
65.31,85.0
65.32,89.0
65.33,88.0
65.34,82.0
65.35,84.0
65.36,68.0
65.37,83.0
65.38,72.0
65.39,110.0
65.4,78.0
65.41,76.0
65.42,86.0
65.43,84.0
65.44,92.0
65.45,99.0
65.46,75.0
65.47,82.0
65.48,86.0
65.49,83.0
65.5,93.0
65.51,82.0
65.52,94.0
65.53,88.0
65.54,96.0
65.55,96.0
65.56,74.0
65.57,84.0
65.58,90.0
65.59,97.0
65.6,85.0
65.61,89.0
65.62,93.0
65.63,96.0
65.64,101.0
65.65,87.0
65.66,100.0
65.67,69.0
65.68,79.0
65.69,99.0
65.7,91.0
65.71,89.0
65.72,91.0
65.73,102.0
65.74,94.0
65.75,90.0
65.76,94.0
65.77,96.0
65.78,81.0
65.79,104.0
65.8,77.0
65.81,86.0
65.82,80.0
65.83,82.0
65.84,96.0
65.85,89.0
65.86,75.0
65.87,87.0
65.88,72.0
65.89,84.0
65.9,97.0
65.91,89.0
65.92,75.0
65.93,85.0
65.94,92.0
65.95,72.0
65.96,83.0
65.97,89.0
65.98,80.0
65.99,80.0
66.0,80.0
66.01,91.0
66.02,58.0
66.03,85.0
66.04,98.0
66.05,83.0
66.06,90.0
66.07,84.0
66.08,100.0
66.09,80.0
66.1,74.0
66.11,86.0
66.12,70.0
66.13,72.0
66.14,116.0
66.15,78.0
66.16,80.0
66.17,89.0
66.18,77.0
66.19,90.0
66.2,100.0
66.21,69.0
66.22,79.0
66.23,95.0
66.24,100.0
66.25,96.0
66.26,104.0
66.27,80.0
66.28,99.0
66.29,92.0
66.3,103.0
66.31,101.0
66.32,91.0
66.33,91.0
66.34,83.0
66.35,100.0
66.36,93.0
66.37,86.0
66.38,95.0
66.39,88.0
66.4,88.0
66.41,86.0
66.42,81.0
66.43,91.0
66.44,93.0
66.45,83.0
66.46,75.0
66.47,100.0
66.48,72.0
66.49,85.0
66.5,91.0
66.51,80.0
66.52,70.0
66.53,89.0
66.54,84.0
66.55,107.0
66.56,114.0
66.57,76.0
66.58,88.0
66.59,94.0
66.6,95.0
66.61,61.0
66.62,87.0
66.63,87.0
66.64,87.0
66.65,89.0
66.66,81.0
66.67,76.0
66.68,82.0
66.69,76.0
66.7,75.0
66.71,63.0
66.72,83.0
66.73,82.0
66.74,83.0
66.75,108.0
66.76,82.0
66.77,69.0
66.78,82.0
66.79,90.0
66.8,75.0
66.81,69.0
66.82,90.0
66.83,72.0
66.84,70.0
66.85,92.0
66.86,86.0
66.87,89.0
66.88,90.0
66.89,73.0
66.9,72.0
66.91,81.0
66.92,86.0
66.93,85.0
66.94,80.0
66.95,69.0
66.96,76.0
66.97,79.0
66.98,68.0
66.99,96.0
67.0,64.0
67.01,74.0
67.02,90.0
67.03,80.0
67.04,81.0
67.05,75.0
67.06,93.0
67.07,102.0
67.08,86.0
67.09,78.0
67.1,90.0
67.11,81.0
67.12,81.0
67.13,82.0
67.14,85.0
67.15,66.0
67.16,80.0
67.17,84.0
67.18,92.0
67.19,86.0
67.2,83.0
67.21,92.0
67.22,89.0
67.23,85.0
67.24,71.0
67.25,59.0
67.26,94.0
67.27,82.0
67.28,81.0
67.29,78.0
67.3,75.0
67.31,62.0
67.32,95.0
67.33,94.0
67.34,75.0
67.35,76.0
67.36,92.0
67.37,81.0
67.38,72.0
67.39,83.0
67.4,65.0
67.41,74.0
67.42,77.0
67.43,75.0
67.44,75.0
67.45,85.0
67.46,77.0
67.47,94.0
67.48,69.0
67.49,82.0
67.5,83.0
67.51,88.0
67.52,101.0
67.53,74.0
67.54,85.0
67.55,95.0
67.56,85.0
67.57,97.0
67.58,79.0
67.59,72.0
67.6,63.0
67.61,88.0
67.62,90.0
67.63,84.0
67.64,83.0
67.65,69.0
67.66,67.0
67.67,77.0
67.68,91.0
67.69,85.0
67.7,86.0
67.71,79.0
67.72,88.0
67.73,88.0
67.74,89.0
67.75,82.0
67.76,98.0
67.77,83.0
67.78,79.0
67.79,94.0
67.8,91.0
67.81,83.0
67.82,79.0
67.83,93.0
67.84,96.0
67.85,97.0
67.86,95.0
67.87,88.0
67.88,99.0
67.89,94.0
67.9,73.0
67.91,79.0
67.92,87.0
67.93,85.0
67.94,88.0
67.95,89.0
67.96,92.0
67.97,97.0
67.98,85.0
67.99,95.0
68.0,88.0
68.01,94.0
68.02,88.0
68.03,94.0
68.04,102.0
68.05,100.0
68.06,103.0
68.07,85.0
68.08,106.0
68.09,99.0
68.1,88.0
68.11,91.0
68.12,96.0
68.13,110.0
68.14,78.0
68.15,93.0
68.16,87.0
68.17,103.0
68.18,92.0
68.19,93.0
68.2,89.0
68.21,85.0
68.22,70.0
68.23,105.0
68.24,87.0
68.25,84.0
68.26,95.0
68.27,92.0
68.28,85.0
68.29,94.0
68.3,82.0
68.31,90.0
68.32,76.0
68.33,85.0
68.34,91.0
68.35,80.0
68.36,81.0
68.37,93.0
68.38,90.0
68.39,97.0
68.4,83.0
68.41,85.0
68.42,77.0
68.43,76.0
68.44,97.0
68.45,81.0
68.46,71.0
68.47,77.0
68.48,88.0
68.49,86.0
68.5,97.0
68.51,94.0
68.52,76.0
68.53,98.0
68.54,84.0
68.55,83.0
68.56,88.0
68.57,65.0
68.58,97.0
68.59,64.0
68.6,78.0
68.61,77.0
68.62,58.0
68.63,77.0
68.64,74.0
68.65,84.0
68.66,94.0
68.67,83.0
68.68,96.0
68.69,83.0
68.7,75.0
68.71,89.0
68.72,95.0
68.73,85.0
68.74,85.0
68.75,81.0
68.76,77.0
68.77,74.0
68.78,96.0
68.79,87.0
68.8,94.0
68.81,71.0
68.82,79.0
68.83,90.0
68.84,85.0
68.85,80.0
68.86,85.0
68.87,82.0
68.88,91.0
68.89,79.0
68.9,82.0
68.91,84.0
68.92,81.0
68.93,75.0
68.94,89.0
68.95,80.0
68.96,75.0
68.97,87.0
68.98,85.0
68.99,83.0
69.0,97.0
69.01,99.0
69.02,77.0
69.03,90.0
69.04,67.0
69.05,71.0
69.06,94.0
69.07,70.0
69.08,73.0
69.09,68.0
69.1,79.0
69.11,99.0
69.12,85.0
69.13,74.0
69.14,75.0
69.15,85.0
69.16,86.0
69.17,75.0
69.18,93.0
69.19,73.0
69.2,92.0
69.21,79.0
69.22,68.0
69.23,77.0
69.24,88.0
69.25,83.0
69.26,68.0
69.27,89.0
69.28,86.0
69.29,87.0
69.3,90.0
69.31,79.0
69.32,74.0
69.33,91.0
69.34,74.0
69.35,90.0
69.36,85.0
69.37,95.0
69.38,79.0
69.39,93.0
69.4,73.0
69.41,78.0
69.42,106.0
69.43,92.0
69.44,97.0
69.45,78.0
69.46,81.0
69.47,90.0
69.48,85.0
69.49,94.0
69.5,109.0
69.51,91.0
69.52,94.0
69.53,98.0
69.54,83.0
69.55,95.0
69.56,104.0
69.57,88.0
69.58,97.0
69.59,107.0
69.6,97.0
69.61,81.0
69.62,88.0
69.63,105.0
69.64,85.0
69.65,100.0
69.66,106.0
69.67,100.0
69.68,110.0
69.69,109.0
69.7,80.0
69.71,88.0
69.72,103.0
69.73,104.0
69.74,80.0
69.75,108.0
69.76,78.0
69.77,88.0
69.78,106.0
69.79,76.0
69.8,79.0
69.81,82.0
69.82,97.0
69.83,96.0
69.84,90.0
69.85,113.0
69.86,90.0
69.87,103.0
69.88,97.0
69.89,101.0
69.9,95.0
69.91,89.0
69.92,82.0
69.93,87.0
69.94,88.0
69.95,95.0
69.96,95.0
69.97,87.0
69.98,70.0
69.99,79.0
70.0,86.0
70.01,88.0
70.02,95.0
70.03,101.0
70.04,74.0
70.05,81.0
70.06,82.0
70.07,97.0
70.08,92.0
70.09,81.0
70.1,80.0
70.11,88.0
70.12,98.0
70.13,104.0
70.14,71.0
70.15,92.0
70.16,93.0
70.17,92.0
70.18,94.0
70.19,86.0
70.2,88.0
70.21,88.0
70.22,92.0
70.23,98.0
70.24,88.0
70.25,88.0
70.26,100.0
70.27,87.0
70.28,100.0
70.29,92.0
70.3,93.0
70.31,91.0
70.32,92.0
70.33,99.0
70.34,77.0
70.35,99.0
70.36,90.0
70.37,91.0
70.38,90.0
70.39,80.0
70.4,99.0
70.41,91.0
70.42,97.0
70.43,87.0
70.44,100.0
70.45,87.0
70.46,97.0
70.47,108.0
70.48,103.0
70.49,97.0
70.5,85.0
70.51,100.0
70.52,108.0
70.53,112.0
70.54,104.0
70.55,132.0
70.56,107.0
70.57,109.0
70.58,116.0
70.59,106.0
70.6,116.0
70.61,125.0
70.62,122.0
70.63,110.0
70.64,107.0
70.65,113.0
70.66,105.0
70.67,106.0
70.68,109.0
70.69,92.0
70.7,94.0
70.71,115.0
70.72,118.0
70.73,102.0
70.74,124.0
70.75,103.0
70.76,106.0
70.77,96.0
70.78,114.0
70.79,112.0
70.8,111.0
70.81,100.0
70.82,96.0
70.83,106.0
70.84,95.0
70.85,88.0
70.86,116.0
70.87,87.0
70.88,126.0
70.89,106.0
70.9,102.0
70.91,105.0
70.92,109.0
70.93,104.0
70.94,89.0
70.95,89.0
70.96,83.0
70.97,75.0
70.98,99.0
70.99,85.0
71.0,106.0
71.01,106.0
71.02,83.0
71.03,79.0
71.04,99.0
71.05,98.0
71.06,78.0
71.07,81.0
71.08,91.0
71.09,89.0
71.1,89.0
71.11,83.0
71.12,70.0
71.13,76.0
71.14,72.0
71.15,82.0
71.16,81.0
71.17,73.0
71.18,99.0
71.19,88.0
71.2,71.0
71.21,73.0
71.22,85.0
71.23,81.0
71.24,94.0
71.25,72.0
71.26,104.0
71.27,89.0
71.28,106.0
71.29,92.0
71.3,79.0
71.31,79.0
71.32,71.0
71.33,86.0
71.34,87.0
71.35,78.0
71.36,73.0
71.37,93.0
71.38,86.0
71.39,87.0
71.4,80.0
71.41,83.0
71.42,76.0
71.43,83.0
71.44,98.0
71.45,89.0
71.46,82.0
71.47,99.0
71.48,88.0
71.49,85.0
71.5,75.0
71.51,62.0
71.52,79.0
71.53,75.0
71.54,76.0
71.55,75.0
71.56,80.0
71.57,72.0
71.58,94.0
71.59,74.0
71.6,84.0
71.61,74.0
71.62,80.0
71.63,85.0
71.64,89.0
71.65,75.0
71.66,87.0
71.67,88.0
71.68,83.0
71.69,84.0
71.7,93.0
71.71,75.0
71.72,64.0
71.73,79.0
71.74,86.0
71.75,94.0
71.76,77.0
71.77,74.0
71.78,69.0
71.79,72.0
71.8,70.0
71.81,73.0
71.82,82.0
71.83,70.0
71.84,78.0
71.85,69.0
71.86,75.0
71.87,75.0
71.88,86.0
71.89,73.0
71.9,89.0
71.91,83.0
71.92,71.0
71.93,77.0
71.94,63.0
71.95,72.0
71.96,84.0
71.97,69.0
71.98,86.0
71.99,76.0
72.0,62.0
72.01,83.0
72.02,77.0
72.03,68.0
72.04,78.0
72.05,92.0
72.06,64.0
72.07,84.0
72.08,79.0
72.09,78.0
72.1,80.0
72.11,79.0
72.12,81.0
72.13,77.0
72.14,61.0
72.15,76.0
72.16,72.0
72.17,72.0
72.18,64.0
72.19,89.0
72.2,79.0
72.21,87.0
72.22,78.0
72.23,83.0
72.24,77.0
72.25,84.0
72.26,68.0
72.27,74.0
72.28,79.0
72.29,83.0
72.3,88.0
72.31,82.0
72.32,77.0
72.33,73.0
72.34,79.0
72.35,77.0
72.36,74.0
72.37,84.0
72.38,81.0
72.39,75.0
72.4,82.0
72.41,75.0
72.42,66.0
72.43,90.0
72.44,69.0
72.45,71.0
72.46,68.0
72.47,86.0
72.48,82.0
72.49,77.0
72.5,73.0
72.51,73.0
72.52,86.0
72.53,85.0
72.54,65.0
72.55,81.0
72.56,76.0
72.57,78.0
72.58,88.0
72.59,74.0
72.6,75.0
72.61,85.0
72.62,79.0
72.63,70.0
72.64,83.0
72.65,86.0
72.66,84.0
72.67,68.0
72.68,74.0
72.69,77.0
72.7,87.0
72.71,99.0
72.72,80.0
72.73,68.0
72.74,74.0
72.75,80.0
72.76,78.0
72.77,82.0
72.78,69.0
72.79,73.0
72.8,80.0
72.81,79.0
72.82,80.0
72.83,75.0
72.84,73.0
72.85,79.0
72.86,86.0
72.87,87.0
72.88,64.0
72.89,86.0
72.9,55.0
72.91,72.0
72.92,70.0
72.93,73.0
72.94,70.0
72.95,82.0
72.96,76.0
72.97,83.0
72.98,70.0
72.99,79.0
73.0,79.0
73.01,76.0
73.02,87.0
73.03,64.0
73.04,82.0
73.05,82.0
73.06,78.0
73.07,62.0
73.08,83.0
73.09,81.0
73.1,75.0
73.11,84.0
73.12,90.0
73.13,77.0
73.14,88.0
73.15,84.0
73.16,86.0
73.17,62.0
73.18,93.0
73.19,78.0
73.2,81.0
73.21,80.0
73.22,80.0
73.23,97.0
73.24,80.0
73.25,81.0
73.26,81.0
73.27,81.0
73.28,75.0
73.29,70.0
73.3,87.0
73.31,81.0
73.32,75.0
73.33,96.0
73.34,73.0
73.35,75.0
73.36,77.0
73.37,100.0
73.38,79.0
73.39,88.0
73.4,77.0
73.41,87.0
73.42,92.0
73.43,73.0
73.44,78.0
73.45,82.0
73.46,103.0
73.47,67.0
73.48,73.0
73.49,77.0
73.5,71.0
73.51,87.0
73.52,78.0
73.53,64.0
73.54,96.0
73.55,76.0
73.56,78.0
73.57,83.0
73.58,68.0
73.59,91.0
73.6,75.0
73.61,80.0
73.62,77.0
73.63,72.0
73.64,76.0
73.65,79.0
73.66,86.0
73.67,78.0
73.68,78.0
73.69,83.0
73.7,66.0
73.71,72.0
73.72,78.0
73.73,71.0
73.74,88.0
73.75,89.0
73.76,74.0
73.77,75.0
73.78,79.0
73.79,84.0
73.8,66.0
73.81,82.0
73.82,72.0
73.83,97.0
73.84,76.0
73.85,78.0
73.86,94.0
73.87,87.0
73.88,90.0
73.89,86.0
73.9,73.0
73.91,77.0
73.92,84.0
73.93,73.0
73.94,75.0
73.95,70.0
73.96,84.0
73.97,102.0
73.98,80.0
73.99,92.0
74.0,94.0
74.01,91.0
74.02,79.0
74.03,72.0
74.04,91.0
74.05,79.0
74.06,65.0
74.07,83.0
74.08,89.0
74.09,78.0
74.1,95.0
74.11,91.0
74.12,90.0
74.13,73.0
74.14,90.0
74.15,83.0
74.16,82.0
74.17,81.0
74.18,85.0
74.19,85.0
74.2,87.0
74.21,95.0
74.22,86.0
74.23,87.0
74.24,85.0
74.25,77.0
74.26,80.0
74.27,81.0
74.28,93.0
74.29,76.0
74.3,80.0
74.31,75.0
74.32,100.0
74.33,88.0
74.34,82.0
74.35,93.0
74.36,91.0
74.37,85.0
74.38,86.0
74.39,95.0
74.4,84.0
74.41,97.0
74.42,81.0
74.43,86.0
74.44,85.0
74.45,82.0
74.46,69.0
74.47,76.0
74.48,77.0
74.49,72.0
74.5,90.0
74.51,89.0
74.52,102.0
74.53,87.0
74.54,78.0
74.55,83.0
74.56,88.0
74.57,86.0
74.58,88.0
74.59,86.0
74.6,69.0
74.61,86.0
74.62,83.0
74.63,80.0
74.64,81.0
74.65,63.0
74.66,68.0
74.67,86.0
74.68,75.0
74.69,93.0
74.7,76.0
74.71,77.0
74.72,95.0
74.73,76.0
74.74,80.0
74.75,87.0
74.76,90.0
74.77,93.0
74.78,62.0
74.79,83.0
74.8,80.0
74.81,74.0
74.82,76.0
74.83,93.0
74.84,79.0
74.85,83.0
74.86,79.0
74.87,77.0
74.88,69.0
74.89,88.0
74.9,84.0
74.91,81.0
74.92,93.0
74.93,86.0
74.94,85.0
74.95,66.0
74.96,79.0
74.97,76.0
74.98,76.0
74.99,94.0
75.0,82.0
75.01,89.0
75.02,85.0
75.03,78.0
75.04,85.0
75.05,65.0
75.06,87.0
75.07,71.0
75.08,61.0
75.09,93.0
75.1,79.0
75.11,73.0
75.12,76.0
75.13,82.0
75.14,81.0
75.15,63.0
75.16,82.0
75.17,92.0
75.18,82.0
75.19,77.0
75.2,73.0
75.21,88.0
75.22,69.0
75.23,84.0
75.24,88.0
75.25,69.0
75.26,72.0
75.27,93.0
75.28,83.0
75.29,81.0
75.3,83.0
75.31,87.0
75.32,93.0
75.33,85.0
75.34,61.0
75.35,86.0
75.36,100.0
75.37,79.0
75.38,91.0
75.39,76.0
75.4,85.0
75.41,85.0
75.42,76.0
75.43,82.0
75.44,73.0
75.45,74.0
75.46,75.0
75.47,77.0
75.48,79.0
75.49,95.0
75.5,78.0
75.51,80.0
75.52,68.0
75.53,75.0
75.54,77.0
75.55,78.0
75.56,81.0
75.57,66.0
75.58,80.0
75.59,84.0
75.6,75.0
75.61,84.0
75.62,89.0
75.63,87.0
75.64,86.0
75.65,88.0
75.66,78.0
75.67,83.0
75.68,75.0
75.69,94.0
75.7,100.0
75.71,77.0
75.72,85.0
75.73,86.0
75.74,84.0
75.75,93.0
75.76,80.0
75.77,93.0
75.78,93.0
75.79,91.0
75.8,80.0
75.81,77.0
75.82,89.0
75.83,97.0
75.84,77.0
75.85,98.0
75.86,71.0
75.87,97.0
75.88,70.0
75.89,76.0
75.9,66.0
75.91,94.0
75.92,119.0
75.93,78.0
75.94,79.0
75.95,79.0
75.96,97.0
75.97,84.0
75.98,91.0
75.99,79.0
76.0,88.0
76.01,94.0
76.02,96.0
76.03,88.0
76.04,90.0
76.05,82.0
76.06,90.0
76.07,93.0
76.08,81.0
76.09,96.0
76.1,95.0
76.11,94.0
76.12,82.0
76.13,95.0
76.14,84.0
76.15,76.0
76.16,90.0
76.17,109.0
76.18,102.0
76.19,96.0
76.2,74.0
76.21,86.0
76.22,85.0
76.23,98.0
76.24,82.0
76.25,95.0
76.26,81.0
76.27,114.0
76.28,86.0
76.29,78.0
76.3,80.0
76.31,104.0
76.32,85.0
76.33,94.0
76.34,78.0
76.35,74.0
76.36,105.0
76.37,79.0
76.38,74.0
76.39,74.0
76.4,74.0
76.41,88.0
76.42,88.0
76.43,79.0
76.44,78.0
76.45,91.0
76.46,98.0
76.47,108.0
76.48,95.0
76.49,110.0
76.5,81.0
76.51,84.0
76.52,108.0
76.53,98.0
76.54,73.0
76.55,91.0
76.56,78.0
76.57,92.0
76.58,86.0
76.59,79.0
76.6,87.0
76.61,89.0
76.62,93.0
76.63,99.0
76.64,99.0
76.65,86.0
76.66,94.0
76.67,79.0
76.68,90.0
76.69,89.0
76.7,91.0
76.71,97.0
76.72,90.0
76.73,85.0
76.74,88.0
76.75,73.0
76.76,102.0
76.77,84.0
76.78,87.0
76.79,83.0
76.8,77.0
76.81,92.0
76.82,85.0
76.83,80.0
76.84,66.0
76.85,86.0
76.86,66.0
76.87,90.0
76.88,72.0
76.89,75.0
76.9,80.0
76.91,73.0
76.92,96.0
76.93,72.0
76.94,74.0
76.95,75.0
76.96,104.0
76.97,77.0
76.98,72.0
76.99,83.0
77.0,89.0
77.01,83.0
77.02,78.0
77.03,91.0
77.04,93.0
77.05,86.0
77.06,83.0
77.07,91.0
77.08,61.0
77.09,91.0
77.1,91.0
77.11,80.0
77.12,65.0
77.13,86.0
77.14,84.0
77.15,83.0
77.16,92.0
77.17,84.0
77.18,72.0
77.19,79.0
77.2,72.0
77.21,65.0
77.22,71.0
77.23,79.0
77.24,86.0
77.25,78.0
77.26,86.0
77.27,77.0
77.28,90.0
77.29,87.0
77.3,69.0
77.31,83.0
77.32,91.0
77.33,79.0
77.34,72.0
77.35,76.0
77.36,81.0
77.37,80.0
77.38,76.0
77.39,79.0
77.4,88.0
77.41,86.0
77.42,80.0
77.43,89.0
77.44,86.0
77.45,87.0
77.46,74.0
77.47,88.0
77.48,71.0
77.49,82.0
77.5,96.0
77.51,78.0
77.52,82.0
77.53,63.0
77.54,80.0
77.55,76.0
77.56,86.0
77.57,84.0
77.58,75.0
77.59,90.0
77.6,84.0
77.61,77.0
77.62,69.0
77.63,81.0
77.64,83.0
77.65,79.0
77.66,76.0
77.67,77.0
77.68,79.0
77.69,80.0
77.7,89.0
77.71,81.0
77.72,74.0
77.73,90.0
77.74,74.0
77.75,84.0
77.76,95.0
77.77,84.0
77.78,84.0
77.79,82.0
77.8,80.0
77.81,88.0
77.82,73.0
77.83,80.0
77.84,81.0
77.85,78.0
77.86,90.0
77.87,82.0
77.88,76.0
77.89,75.0
77.9,81.0
77.91,84.0
77.92,72.0
77.93,83.0
77.94,83.0
77.95,85.0
77.96,83.0
77.97,84.0
77.98,79.0
77.99,72.0
78.0,62.0
78.01,89.0
78.02,91.0
78.03,74.0
78.04,72.0
78.05,67.0
78.06,65.0
78.07,81.0
78.08,66.0
78.09,82.0
78.1,93.0
78.11,74.0
78.12,73.0
78.13,91.0
78.14,72.0
78.15,80.0
78.16,83.0
78.17,88.0
78.18,97.0
78.19,78.0
78.2,78.0
78.21,74.0
78.22,77.0
78.23,85.0
78.24,74.0
78.25,77.0
78.26,65.0
78.27,71.0
78.28,85.0
78.29,78.0
78.3,89.0
78.31,86.0
78.32,81.0
78.33,73.0
78.34,60.0
78.35,80.0
78.36,79.0
78.37,96.0
78.38,75.0
78.39,93.0
78.4,81.0
78.41,65.0
78.42,87.0
78.43,60.0
78.44,90.0
78.45,88.0
78.46,93.0
78.47,106.0
78.48,107.0
78.49,77.0
78.5,83.0
78.51,107.0
78.52,94.0
78.53,99.0
78.54,90.0
78.55,96.0
78.56,77.0
78.57,96.0
78.58,108.0
78.59,80.0
78.6,89.0
78.61,97.0
78.62,76.0
78.63,97.0
78.64,77.0
78.65,81.0
78.66,97.0
78.67,102.0
78.68,99.0
78.69,84.0
78.7,97.0
78.71,90.0
78.72,107.0
78.73,82.0
78.74,86.0
78.75,88.0
78.76,104.0
78.77,98.0
78.78,100.0
78.79,95.0
78.8,97.0
78.81,97.0
78.82,70.0
78.83,102.0
78.84,97.0
78.85,91.0
78.86,78.0
78.87,87.0
78.88,89.0
78.89,91.0
78.9,88.0
78.91,80.0
78.92,87.0
78.93,81.0
78.94,89.0
78.95,82.0
78.96,76.0
78.97,95.0
78.98,94.0
78.99,88.0
79.0,101.0
79.01,80.0
79.02,84.0
79.03,77.0
79.04,71.0
79.05,89.0
79.06,95.0
79.07,74.0
79.08,87.0
79.09,90.0
79.1,87.0
79.11,86.0
79.12,87.0
79.13,79.0
79.14,70.0
79.15,80.0
79.16,88.0
79.17,92.0
79.18,89.0
79.19,74.0
79.2,69.0
79.21,81.0
79.22,77.0
79.23,90.0
79.24,69.0
79.25,87.0
79.26,78.0
79.27,75.0
79.28,85.0
79.29,80.0
79.3,81.0
79.31,74.0
79.32,77.0
79.33,67.0
79.34,93.0
79.35,80.0
79.36,92.0
79.37,78.0
79.38,86.0
79.39,69.0
79.4,64.0
79.41,105.0
79.42,72.0
79.43,76.0
79.44,74.0
79.45,83.0
79.46,84.0
79.47,77.0
79.48,69.0
79.49,68.0
79.5,77.0
79.51,83.0
79.52,73.0
79.53,72.0
79.54,88.0
79.55,97.0
79.56,86.0
79.57,87.0
79.58,72.0
79.59,76.0
79.6,64.0
79.61,83.0
79.62,70.0
79.63,75.0
79.64,87.0
79.65,81.0
79.66,75.0
79.67,85.0
79.68,80.0
79.69,86.0
79.7,72.0
79.71,81.0
79.72,96.0
79.73,75.0
79.74,78.0
79.75,85.0
79.76,76.0
79.77,71.0
79.78,77.0
79.79,77.0
79.8,77.0
79.81,87.0
79.82,74.0
79.83,74.0
79.84,73.0
79.85,78.0
79.86,93.0
79.87,74.0
79.88,81.0
79.89,75.0
79.9,87.0
79.91,68.0
79.92,89.0
79.93,78.0
79.94,77.0
79.95,90.0
79.96,73.0
79.97,73.0
79.98,88.0
79.99,87.0
80.0,84.0
80.01,85.0
80.02,78.0
80.03,82.0
80.04,70.0
80.05,86.0
80.06,85.0
80.07,86.0
80.08,74.0
80.09,85.0
80.1,79.0
80.11,82.0
80.12,77.0
80.13,89.0
80.14,78.0
80.15,72.0
80.16,77.0
80.17,66.0
80.18,81.0
80.19,79.0
80.2,80.0
80.21,83.0
80.22,91.0
80.23,81.0
80.24,68.0
80.25,81.0
80.26,76.0
80.27,76.0
80.28,80.0
80.29,78.0
80.3,80.0
80.31,92.0
80.32,85.0
80.33,89.0
80.34,71.0
80.35,87.0
80.36,91.0
80.37,85.0
80.38,77.0
80.39,69.0
80.4,80.0
80.41,83.0
80.42,94.0
80.43,94.0
80.44,57.0
80.45,80.0
80.46,85.0
80.47,90.0
80.48,85.0
80.49,89.0
80.5,74.0
80.51,79.0
80.52,66.0
80.53,69.0
80.54,92.0
80.55,79.0
80.56,69.0
80.57,78.0
80.58,84.0
80.59,111.0
80.6,79.0
80.61,73.0
80.62,74.0
80.63,85.0
80.64,79.0
80.65,72.0
80.66,83.0
80.67,80.0
80.68,96.0
80.69,70.0
80.7,78.0
80.71,85.0
80.72,78.0
80.73,85.0
80.74,72.0
80.75,78.0
80.76,79.0
80.77,88.0
80.78,71.0
80.79,82.0
80.8,71.0
80.81,66.0
80.82,93.0
80.83,69.0
80.84,67.0
80.85,88.0
80.86,78.0
80.87,86.0
80.88,74.0
80.89,85.0
80.9,88.0
80.91,86.0
80.92,74.0
80.93,82.0
80.94,89.0
80.95,76.0
80.96,75.0
80.97,94.0
80.98,94.0
80.99,84.0
81.0,72.0
81.01,74.0
81.02,85.0
81.03,66.0
81.04,69.0
81.05,79.0
81.06,88.0
81.07,96.0
81.08,80.0
81.09,87.0
81.1,83.0
81.11,83.0
81.12,95.0
81.13,83.0
81.14,80.0
81.15,84.0
81.16,79.0
81.17,89.0
81.18,70.0
81.19,85.0
81.2,62.0
81.21,77.0
81.22,77.0
81.23,66.0
81.24,75.0
81.25,89.0
81.26,89.0
81.27,85.0
81.28,93.0
81.29,65.0
81.3,84.0
81.31,72.0
81.32,77.0
81.33,72.0
81.34,94.0
81.35,85.0
81.36,77.0
81.37,83.0
81.38,100.0
81.39,96.0
81.4,72.0
81.41,82.0
81.42,87.0
81.43,88.0
81.44,105.0
81.45,77.0
81.46,85.0
81.47,72.0
81.48,82.0
81.49,103.0
81.5,95.0
81.51,81.0
81.52,87.0
81.53,74.0
81.54,75.0
81.55,75.0
81.56,90.0
81.57,84.0
81.58,74.0
81.59,78.0
81.6,95.0
81.61,93.0
81.62,87.0
81.63,77.0
81.64,71.0
81.65,85.0
81.66,68.0
81.67,82.0
81.68,106.0
81.69,82.0
81.7,87.0
81.71,74.0
81.72,80.0
81.73,98.0
81.74,74.0
81.75,94.0
81.76,76.0
81.77,83.0
81.78,96.0
81.79,80.0
81.8,73.0
81.81,74.0
81.82,71.0
81.83,82.0
81.84,82.0
81.85,94.0
81.86,71.0
81.87,76.0
81.88,81.0
81.89,81.0
81.9,86.0
81.91,75.0
81.92,70.0
81.93,81.0
81.94,91.0
81.95,79.0
81.96,75.0
81.97,73.0
81.98,62.0
81.99,89.0
82.0,81.0
82.01,68.0
82.02,76.0
82.03,90.0
82.04,97.0
82.05,97.0
82.06,89.0
82.07,81.0
82.08,81.0
82.09,79.0
82.1,89.0
82.11,89.0
82.12,87.0
82.13,84.0
82.14,93.0
82.15,83.0
82.16,93.0
82.17,107.0
82.18,76.0
82.19,85.0
82.2,81.0
82.21,96.0
82.22,78.0
82.23,112.0
82.24,78.0
82.25,92.0
82.26,77.0
82.27,97.0
82.28,85.0
82.29,81.0
82.3,98.0
82.31,103.0
82.32,88.0
82.33,93.0
82.34,87.0
82.35,85.0
82.36,85.0
82.37,93.0
82.38,85.0
82.39,87.0
82.4,70.0
82.41,88.0
82.42,107.0
82.43,90.0
82.44,79.0
82.45,99.0
82.46,72.0
82.47,88.0
82.48,100.0
82.49,88.0
82.5,93.0
82.51,109.0
82.52,82.0
82.53,75.0
82.54,80.0
82.55,69.0
82.56,88.0
82.57,82.0
82.58,78.0
82.59,85.0
82.6,84.0
82.61,88.0
82.62,94.0
82.63,86.0
82.64,92.0
82.65,87.0
82.66,95.0
82.67,80.0
82.68,90.0
82.69,83.0
82.7,96.0
82.71,78.0
82.72,86.0
82.73,84.0
82.74,86.0
82.75,65.0
82.76,81.0
82.77,97.0
82.78,70.0
82.79,91.0
82.8,81.0
82.81,84.0
82.82,85.0
82.83,81.0
82.84,87.0
82.85,72.0
82.86,81.0
82.87,83.0
82.88,82.0
82.89,71.0
82.9,75.0
82.91,89.0
82.92,92.0
82.93,82.0
82.94,75.0
82.95,81.0
82.96,66.0
82.97,83.0
82.98,81.0
82.99,70.0
83.0,89.0
83.01,84.0
83.02,79.0
83.03,83.0
83.04,93.0
83.05,70.0
83.06,88.0
83.07,91.0
83.08,72.0
83.09,69.0
83.1,77.0
83.11,86.0
83.12,79.0
83.13,83.0
83.14,88.0
83.15,86.0
83.16,79.0
83.17,80.0
83.18,64.0
83.19,86.0
83.2,69.0
83.21,86.0
83.22,74.0
83.23,66.0
83.24,81.0
83.25,78.0
83.26,76.0
83.27,81.0
83.28,76.0
83.29,79.0
83.3,86.0
83.31,73.0
83.32,86.0
83.33,82.0
83.34,85.0
83.35,82.0
83.36,90.0
83.37,94.0
83.38,71.0
83.39,85.0
83.4,89.0
83.41,88.0
83.42,88.0
83.43,83.0
83.44,65.0
83.45,90.0
83.46,69.0
83.47,91.0
83.48,73.0
83.49,65.0
83.5,98.0
83.51,78.0
83.52,75.0
83.53,98.0
83.54,79.0
83.55,79.0
83.56,86.0
83.57,82.0
83.58,93.0
83.59,82.0
83.6,85.0
83.61,101.0
83.62,102.0
83.63,88.0
83.64,85.0
83.65,78.0
83.66,93.0
83.67,100.0
83.68,76.0
83.69,85.0
83.7,70.0
83.71,73.0
83.72,74.0
83.73,102.0
83.74,88.0
83.75,69.0
83.76,80.0
83.77,102.0
83.78,70.0
83.79,82.0
83.8,74.0
83.81,96.0
83.82,82.0
83.83,83.0
83.84,83.0
83.85,73.0
83.86,92.0
83.87,90.0
83.88,104.0
83.89,74.0
83.9,81.0
83.91,80.0
83.92,99.0
83.93,85.0
83.94,93.0
83.95,82.0
83.96,82.0
83.97,79.0
83.98,92.0
83.99,67.0
84.0,72.0
84.01,69.0
84.02,74.0
84.03,80.0
84.04,85.0
84.05,81.0
84.06,89.0
84.07,80.0
84.08,81.0
84.09,86.0
84.1,86.0
84.11,100.0
84.12,90.0
84.13,85.0
84.14,104.0
84.15,86.0
84.16,88.0
84.17,90.0
84.18,67.0
84.19,90.0
84.2,80.0
84.21,79.0
84.22,86.0
84.23,75.0
84.24,85.0
84.25,82.0
84.26,93.0
84.27,81.0
84.28,86.0
84.29,94.0
84.3,65.0
84.31,70.0
84.32,77.0
84.33,81.0
84.34,85.0
84.35,97.0
84.36,100.0
84.37,83.0
84.38,65.0
84.39,71.0
84.4,83.0
84.41,77.0
84.42,94.0
84.43,86.0
84.44,86.0
84.45,71.0
84.46,84.0
84.47,77.0
84.48,87.0
84.49,72.0
84.5,85.0
84.51,67.0
84.52,78.0
84.53,98.0
84.54,81.0
84.55,72.0
84.56,77.0
84.57,85.0
84.58,76.0
84.59,66.0
84.6,95.0
84.61,79.0
84.62,82.0
84.63,79.0
84.64,74.0
84.65,91.0
84.66,70.0
84.67,77.0
84.68,84.0
84.69,75.0
84.7,76.0
84.71,74.0
84.72,78.0
84.73,78.0
84.74,77.0
84.75,78.0
84.76,86.0
84.77,85.0
84.78,68.0
84.79,87.0
84.8,72.0
84.81,92.0
84.82,85.0
84.83,76.0
84.84,90.0
84.85,81.0
84.86,64.0
84.87,71.0
84.88,101.0
84.89,109.0
84.9,89.0
84.91,91.0
84.92,92.0
84.93,84.0
84.94,79.0
84.95,110.0
84.96,91.0
84.97,93.0
84.98,72.0
84.99,82.0
85.0,77.0
85.01,86.0
85.02,65.0
85.03,80.0
85.04,84.0
85.05,85.0
85.06,77.0
85.07,79.0
85.08,92.0
85.09,67.0
85.1,93.0
85.11,77.0
85.12,75.0
85.13,88.0
85.14,86.0
85.15,86.0
85.16,72.0
85.17,84.0
85.18,93.0
85.19,83.0
85.2,83.0
85.21,88.0
85.22,88.0
85.23,84.0
85.24,96.0
85.25,69.0
85.26,91.0
85.27,81.0
85.28,81.0
85.29,80.0
85.3,66.0
85.31,82.0
85.32,91.0
85.33,89.0
85.34,82.0
85.35,96.0
85.36,93.0
85.37,86.0
85.38,83.0
85.39,77.0
85.4,87.0
85.41,68.0
85.42,86.0
85.43,84.0
85.44,83.0
85.45,89.0
85.46,75.0
85.47,70.0
85.48,67.0
85.49,85.0
85.5,97.0
85.51,83.0
85.52,90.0
85.53,94.0
85.54,85.0
85.55,66.0
85.56,87.0
85.57,87.0
85.58,76.0
85.59,84.0
85.6,84.0
85.61,80.0
85.62,68.0
85.63,104.0
85.64,72.0
85.65,83.0
85.66,85.0
85.67,81.0
85.68,74.0
85.69,93.0
85.7,90.0
85.71,80.0
85.72,81.0
85.73,92.0
85.74,84.0
85.75,78.0
85.76,68.0
85.77,81.0
85.78,83.0
85.79,82.0
85.8,82.0
85.81,81.0
85.82,81.0
85.83,83.0
85.84,87.0
85.85,68.0
85.86,78.0
85.87,73.0
85.88,90.0
85.89,87.0
85.9,84.0
85.91,57.0
85.92,87.0
85.93,93.0
85.94,95.0
85.95,85.0
85.96,78.0
85.97,82.0
85.98,84.0
85.99,81.0
86.0,83.0
86.01,85.0
86.02,73.0
86.03,86.0
86.04,75.0
86.05,71.0
86.06,85.0
86.07,98.0
86.08,92.0
86.09,91.0
86.1,74.0
86.11,100.0
86.12,91.0
86.13,78.0
86.14,73.0
86.15,90.0
86.16,98.0
86.17,82.0
86.18,85.0
86.19,78.0
86.2,80.0
86.21,82.0
86.22,92.0
86.23,70.0
86.24,91.0
86.25,90.0
86.26,85.0
86.27,84.0
86.28,83.0
86.29,91.0
86.3,96.0
86.31,79.0
86.32,87.0
86.33,85.0
86.34,79.0
86.35,88.0
86.36,96.0
86.37,100.0
86.38,74.0
86.39,87.0
86.4,76.0
86.41,90.0
86.42,83.0
86.43,84.0
86.44,79.0
86.45,81.0
86.46,95.0
86.47,81.0
86.48,89.0
86.49,72.0
86.5,104.0
86.51,79.0
86.52,81.0
86.53,87.0
86.54,92.0
86.55,90.0
86.56,103.0
86.57,88.0
86.58,83.0
86.59,83.0
86.6,92.0
86.61,91.0
86.62,77.0
86.63,88.0
86.64,91.0
86.65,76.0
86.66,82.0
86.67,70.0
86.68,83.0
86.69,90.0
86.7,78.0
86.71,75.0
86.72,71.0
86.73,83.0
86.74,85.0
86.75,86.0
86.76,97.0
86.77,82.0
86.78,99.0
86.79,80.0
86.8,72.0
86.81,92.0
86.82,74.0
86.83,75.0
86.84,110.0
86.85,100.0
86.86,74.0
86.87,76.0
86.88,71.0
86.89,71.0
86.9,87.0
86.91,79.0
86.92,85.0
86.93,74.0
86.94,81.0
86.95,89.0
86.96,89.0
86.97,95.0
86.98,82.0
86.99,80.0
87.0,88.0
87.01,64.0
87.02,87.0
87.03,91.0
87.04,80.0
87.05,89.0
87.06,90.0
87.07,89.0
87.08,87.0
87.09,76.0
87.1,76.0
87.11,83.0
87.12,88.0
87.13,83.0
87.14,94.0
87.15,93.0
87.16,83.0
87.17,86.0
87.18,76.0
87.19,99.0
87.2,87.0
87.21,84.0
87.22,57.0
87.23,86.0
87.24,79.0
87.25,90.0
87.26,85.0
87.27,89.0
87.28,81.0
87.29,81.0
87.3,95.0
87.31,92.0
87.32,97.0
87.33,75.0
87.34,64.0
87.35,72.0
87.36,75.0
87.37,84.0
87.38,82.0
87.39,93.0
87.4,78.0
87.41,92.0
87.42,88.0
87.43,89.0
87.44,76.0
87.45,77.0
87.46,58.0
87.47,75.0
87.48,91.0
87.49,99.0
87.5,83.0
87.51,73.0
87.52,90.0
87.53,95.0
87.54,90.0
87.55,91.0
87.56,92.0
87.57,94.0
87.58,74.0
87.59,75.0
87.6,82.0
87.61,101.0
87.62,63.0
87.63,90.0
87.64,81.0
87.65,93.0
87.66,85.0
87.67,82.0
87.68,85.0
87.69,86.0
87.7,75.0
87.71,91.0
87.72,95.0
87.73,100.0
87.74,82.0
87.75,88.0
87.76,91.0
87.77,79.0
87.78,89.0
87.79,84.0
87.8,75.0
87.81,88.0
87.82,101.0
87.83,95.0
87.84,77.0
87.85,90.0
87.86,93.0
87.87,86.0
87.88,77.0
87.89,93.0
87.9,78.0
87.91,101.0
87.92,89.0
87.93,110.0
87.94,81.0
87.95,97.0
87.96,89.0
87.97,87.0
87.98,93.0
87.99,74.0
88.0,82.0
88.01,93.0
88.02,98.0
88.03,92.0
88.04,114.0
88.05,77.0
88.06,101.0
88.07,84.0
88.08,79.0
88.09,89.0
88.1,88.0
88.11,89.0
88.12,84.0
88.13,77.0
88.14,78.0
88.15,68.0
88.16,73.0
88.17,91.0
88.18,85.0
88.19,89.0
88.2,81.0
88.21,87.0
88.22,72.0
88.23,87.0
88.24,89.0
88.25,92.0
88.26,73.0
88.27,81.0
88.28,68.0
88.29,73.0
88.3,83.0
88.31,101.0
88.32,111.0
88.33,92.0
88.34,86.0
88.35,63.0
88.36,71.0
88.37,86.0
88.38,91.0
88.39,74.0
88.4,75.0
88.41,73.0
88.42,86.0
88.43,90.0
88.44,77.0
88.45,83.0
88.46,85.0
88.47,80.0
88.48,103.0
88.49,110.0
88.5,64.0
88.51,103.0
88.52,89.0
88.53,87.0
88.54,83.0
88.55,85.0
88.56,82.0
88.57,79.0
88.58,81.0
88.59,70.0
88.6,93.0
88.61,87.0
88.62,82.0
88.63,82.0
88.64,89.0
88.65,81.0
88.66,86.0
88.67,77.0
88.68,88.0
88.69,84.0
88.7,100.0
88.71,85.0
88.72,64.0
88.73,83.0
88.74,98.0
88.75,77.0
88.76,96.0
88.77,90.0
88.78,97.0
88.79,79.0
88.8,77.0
88.81,72.0
88.82,73.0
88.83,81.0
88.84,87.0
88.85,84.0
88.86,89.0
88.87,73.0
88.88,94.0
88.89,83.0
88.9,101.0
88.91,69.0
88.92,79.0
88.93,64.0
88.94,82.0
88.95,103.0
88.96,78.0
88.97,83.0
88.98,81.0
88.99,78.0
89.0,73.0
89.01,68.0
89.02,73.0
89.03,68.0
89.04,90.0
89.05,90.0
89.06,84.0
89.07,87.0
89.08,82.0
89.09,80.0
89.1,89.0
89.11,93.0
89.12,78.0
89.13,69.0
89.14,86.0
89.15,82.0
89.16,99.0
89.17,79.0
89.18,80.0
89.19,75.0
89.2,72.0
89.21,71.0
89.22,87.0
89.23,87.0
89.24,72.0
89.25,76.0
89.26,77.0
89.27,65.0
89.28,96.0
89.29,84.0
89.3,96.0
89.31,79.0
89.32,80.0
89.33,76.0
89.34,85.0
89.35,76.0
89.36,59.0
89.37,82.0
89.38,68.0
89.39,72.0
89.4,98.0
89.41,75.0
89.42,71.0
89.43,70.0
89.44,79.0
89.45,84.0
89.46,66.0
89.47,77.0
89.48,85.0
89.49,82.0
89.5,85.0
89.51,69.0
89.52,76.0
89.53,78.0
89.54,71.0
89.55,87.0
89.56,78.0
89.57,76.0
89.58,77.0
89.59,84.0
89.6,88.0
89.61,76.0
89.62,88.0
89.63,90.0
89.64,88.0
89.65,83.0
89.66,91.0
89.67,82.0
89.68,89.0
89.69,65.0
89.7,77.0
89.71,76.0
89.72,81.0
89.73,105.0
89.74,85.0
89.75,87.0
89.76,90.0
89.77,78.0
89.78,92.0
89.79,89.0
89.8,86.0
89.81,82.0
89.82,80.0
89.83,92.0
89.84,70.0
89.85,75.0
89.86,82.0
89.87,86.0
89.88,88.0
89.89,85.0
89.9,87.0
89.91,84.0
89.92,90.0
89.93,97.0
89.94,92.0
89.95,74.0
89.96,91.0
89.97,89.0
89.98,72.0
89.99,67.0
90.0,89.0
