angle,intensity
5.0,147.0
5.01,122.0
5.02,138.0
5.03,159.0
5.04,126.0
5.05,168.0
5.06,161.0
5.07,167.0
5.08,149.0
5.09,139.0
5.1,152.0
5.11,138.0
5.12,141.0
5.13,152.0
5.14,164.0
5.15,158.0
5.16,157.0
5.17,133.0
5.18,147.0
5.19,154.0
5.2,171.0
5.21,149.0
5.22,170.0
5.23,137.0
5.24,153.0
5.25,150.0
5.26,160.0
5.27,153.0
5.28,160.0
5.29,151.0
5.3,146.0
5.31,151.0
5.32,164.0
5.33,148.0
5.34,150.0
5.35,172.0
5.36,163.0
5.37,143.0
5.38,153.0
5.39,155.0
5.4,143.0
5.41,159.0
5.42,140.0
5.43,150.0
5.44,166.0
5.45,146.0
5.46,140.0
5.47,134.0
5.48,153.0
5.49,152.0
5.5,159.0
5.51,144.0
5.52,127.0
5.53,145.0
5.54,143.0
5.55,137.0
5.56,147.0
5.57,156.0
5.58,143.0
5.59,183.0
5.6,157.0
5.61,151.0
5.62,148.0
5.63,137.0
5.64,152.0
5.65,145.0
5.66,128.0
5.67,156.0
5.68,131.0
5.69,136.0
5.7,149.0
5.71,150.0
5.72,162.0
5.73,142.0
5.74,163.0
5.75,167.0
5.76,172.0
5.77,163.0
5.78,174.0
5.79,132.0
5.8,161.0
5.81,134.0
5.82,159.0
5.83,145.0
5.84,162.0
5.85,166.0
5.86,190.0
5.87,149.0
5.88,146.0
5.89,162.0
5.9,152.0
5.91,150.0
5.92,156.0
5.93,154.0
5.94,144.0
5.95,158.0
5.96,148.0
5.97,132.0
5.98,148.0
5.99,143.0
6.0,148.0
6.01,145.0
6.02,163.0
6.03,171.0
6.04,149.0
6.05,166.0
6.06,147.0
6.07,153.0
6.08,157.0
6.09,135.0
6.1,150.0
6.11,145.0
6.12,136.0
6.13,150.0
6.14,138.0
6.15,144.0
6.16,162.0
6.17,172.0
6.18,168.0
6.19,151.0
6.2,162.0
6.21,150.0
6.22,150.0
6.23,140.0
6.24,181.0
6.25,148.0
6.26,149.0
6.27,156.0
6.28,153.0
6.29,155.0
6.3,160.0
6.31,159.0
6.32,162.0
6.33,151.0
6.34,164.0
6.35,156.0
6.36,152.0
6.37,140.0
6.38,143.0
6.39,138.0
6.4,165.0
6.41,152.0
6.42,165.0
6.43,168.0
6.44,154.0
6.45,142.0
6.46,158.0
6.47,153.0
6.48,166.0
6.49,149.0
6.5,155.0
6.51,164.0
6.52,140.0
6.53,152.0
6.54,162.0
6.55,133.0
6.56,141.0
6.57,163.0
6.58,134.0
6.59,177.0
6.6,137.0
6.61,175.0
6.62,162.0
6.63,173.0
6.64,166.0
6.65,150.0
6.66,153.0
6.67,150.0
6.68,163.0
6.69,144.0
6.7,149.0
6.71,137.0
6.72,152.0
6.73,159.0
6.74,162.0
6.75,143.0
6.76,140.0
6.77,160.0
6.78,161.0
6.79,195.0
6.8,174.0
6.81,150.0
6.82,143.0
6.83,163.0
6.84,161.0
6.85,154.0
6.86,164.0
6.87,185.0
6.88,153.0
6.89,125.0
6.9,134.0
6.91,154.0
6.92,167.0
6.93,178.0
6.94,152.0
6.95,157.0
6.96,149.0
6.97,145.0
6.98,157.0
6.99,178.0
7.0,184.0
7.01,171.0
7.02,143.0
7.03,177.0
7.04,154.0
7.05,167.0
7.06,152.0
7.07,141.0
7.08,157.0
7.09,170.0
7.1,188.0
7.11,162.0
7.12,190.0
7.13,157.0
7.14,177.0
7.15,196.0
7.16,169.0
7.17,189.0
7.18,184.0
7.19,165.0
7.2,154.0
7.21,157.0
7.22,169.0
7.23,140.0
7.24,164.0
7.25,141.0
7.26,171.0
7.27,162.0
7.28,155.0
7.29,159.0
7.3,150.0
7.31,175.0
7.32,154.0
7.33,184.0
7.34,149.0
7.35,153.0
7.36,165.0
7.37,163.0
7.38,187.0
7.39,182.0
7.4,148.0
7.41,147.0
7.42,193.0
7.43,153.0
7.44,174.0
7.45,185.0
7.46,158.0
7.47,166.0
7.48,164.0
7.49,164.0
7.5,162.0
7.51,170.0
7.52,186.0
7.53,188.0
7.54,185.0
7.55,170.0
7.56,156.0
7.57,165.0
7.58,201.0
7.59,183.0
7.6,172.0
7.61,177.0
7.62,169.0
7.63,167.0
7.64,159.0
7.65,161.0
7.66,166.0
7.67,164.0
7.68,186.0
7.69,147.0
7.7,177.0
7.71,184.0
7.72,179.0
7.73,170.0
7.74,155.0
7.75,141.0
7.76,164.0
7.77,164.0
7.78,159.0
7.79,167.0
7.8,159.0
7.81,152.0
7.82,158.0
7.83,186.0
7.84,153.0
7.85,173.0
7.86,170.0
7.87,171.0
7.88,174.0
7.89,173.0
7.9,168.0
7.91,170.0
7.92,162.0
7.93,160.0
7.94,165.0
7.95,134.0
7.96,161.0
7.97,164.0
7.98,154.0
7.99,162.0
8.0,162.0
8.01,152.0
8.02,185.0
8.03,173.0
8.04,178.0
8.05,177.0
8.06,192.0
8.07,146.0
8.08,168.0
8.09,157.0
8.1,143.0
8.11,164.0
8.12,180.0
8.13,157.0
8.14,174.0
8.15,169.0
8.16,166.0
8.17,185.0
8.18,183.0
8.19,164.0
8.2,161.0
8.21,155.0
8.22,138.0
8.23,163.0
8.24,186.0
8.25,178.0
8.26,140.0
8.27,145.0
8.28,144.0
8.29,165.0
8.3,159.0
8.31,138.0
8.32,185.0
8.33,147.0
8.34,162.0
8.35,162.0
8.36,182.0
8.37,159.0
8.38,149.0
8.39,167.0
8.4,151.0
8.41,171.0
8.42,159.0
8.43,161.0
8.44,182.0
8.45,167.0
8.46,158.0
8.47,159.0
8.48,155.0
8.49,148.0
8.5,146.0
8.51,174.0
8.52,172.0
8.53,159.0
8.54,178.0
8.55,166.0
8.56,153.0
8.57,137.0
8.58,135.0
8.59,172.0
8.6,170.0
8.61,167.0
8.62,158.0
8.63,156.0
8.64,153.0
8.65,169.0
8.66,171.0
8.67,182.0
8.68,158.0
8.69,172.0
8.7,154.0
8.71,165.0
8.72,143.0
8.73,171.0
8.74,143.0
8.75,160.0
8.76,162.0
8.77,163.0
8.78,184.0
8.79,155.0
8.8,164.0
8.81,144.0
8.82,155.0
8.83,147.0
8.84,142.0
8.85,172.0
8.86,183.0
8.87,142.0
8.88,175.0
8.89,156.0
8.9,141.0
8.91,150.0
8.92,173.0
8.93,176.0
8.94,151.0
8.95,160.0
8.96,149.0
8.97,158.0
8.98,193.0
8.99,174.0
9.0,150.0
9.01,156.0
9.02,121.0
9.03,163.0
9.04,160.0
9.05,179.0
9.06,166.0
9.07,169.0
9.08,165.0
9.09,162.0
9.1,175.0
9.11,159.0
9.12,159.0
9.13,156.0
9.14,143.0
9.15,171.0
9.16,158.0
9.17,163.0
9.18,143.0
9.19,156.0
9.2,146.0
9.21,158.0
9.22,163.0
9.23,186.0
9.24,171.0
9.25,151.0
9.26,178.0
9.27,169.0
9.28,176.0
9.29,145.0
9.3,163.0
9.31,146.0
9.32,162.0
9.33,179.0
9.34,131.0
9.35,155.0
9.36,156.0
9.37,159.0
9.38,155.0
9.39,168.0
9.4,143.0
9.41,154.0
9.42,170.0
9.43,157.0
9.44,159.0
9.45,155.0
9.46,159.0
9.47,158.0
9.48,166.0
9.49,162.0
9.5,151.0
9.51,161.0
9.52,143.0
9.53,188.0
9.54,165.0
9.55,183.0
9.56,169.0
9.57,165.0
9.58,176.0
9.59,152.0
9.6,156.0
9.61,167.0
9.62,157.0
9.63,159.0
9.64,154.0
9.65,168.0
9.66,159.0
9.67,189.0
9.68,154.0
9.69,175.0
9.7,156.0
9.71,177.0
9.72,161.0
9.73,153.0
9.74,188.0
9.75,169.0
9.76,170.0
9.77,160.0
9.78,138.0
9.79,175.0
9.8,135.0
9.81,174.0
9.82,166.0
9.83,148.0
9.84,155.0
9.85,180.0
9.86,147.0
9.87,157.0
9.88,147.0
9.89,184.0
9.9,186.0
9.91,170.0
9.92,165.0
9.93,162.0
9.94,147.0
9.95,159.0
9.96,134.0
9.97,168.0
9.98,183.0
9.99,156.0
10.0,154.0
10.01,173.0
10.02,170.0
10.03,175.0
10.04,175.0
10.05,160.0
10.06,165.0
10.07,163.0
10.08,178.0
10.09,160.0
10.1,151.0
10.11,188.0
10.12,147.0
10.13,168.0
10.14,166.0
10.15,162.0
10.16,142.0
10.17,153.0
10.18,156.0
10.19,160.0
10.2,155.0
10.21,148.0
10.22,164.0
10.23,175.0
10.24,157.0
10.25,144.0
10.26,167.0
10.27,155.0
10.28,163.0
10.29,153.0
10.3,176.0
10.31,173.0
10.32,162.0
10.33,164.0
10.34,179.0
10.35,171.0
10.36,144.0
10.37,163.0
10.38,169.0
10.39,157.0
10.4,155.0
10.41,175.0
10.42,158.0
10.43,177.0
10.44,176.0
10.45,163.0
10.46,155.0
10.47,175.0
10.48,167.0
10.49,181.0
10.5,182.0
10.51,161.0
10.52,180.0
10.53,151.0
10.54,187.0
10.55,175.0
10.56,168.0
10.57,163.0
10.58,165.0
10.59,137.0
10.6,141.0
10.61,152.0
10.62,186.0
10.63,159.0
10.64,178.0
10.65,172.0
10.66,173.0
10.67,132.0
10.68,174.0
10.69,162.0
10.7,171.0
10.71,173.0
10.72,143.0
10.73,160.0
10.74,175.0
10.75,200.0
10.76,189.0
10.77,149.0
10.78,177.0
10.79,155.0
10.8,177.0
10.81,175.0
10.82,176.0
10.83,158.0
10.84,172.0
10.85,158.0
10.86,177.0
10.87,164.0
10.88,154.0
10.89,198.0
10.9,178.0
10.91,160.0
10.92,176.0
10.93,168.0
10.94,180.0
10.95,169.0
10.96,173.0
10.97,181.0
10.98,173.0
10.99,161.0
11.0,176.0
11.01,180.0
11.02,168.0
11.03,160.0
11.04,152.0
11.05,171.0
11.06,168.0
11.07,169.0
11.08,181.0
11.09,163.0
11.1,189.0
11.11,159.0
11.12,184.0
11.13,174.0
11.14,199.0
11.15,157.0
11.16,171.0
11.17,170.0
11.18,163.0
11.19,187.0
11.2,192.0
11.21,171.0
11.22,184.0
11.23,156.0
11.24,177.0
11.25,171.0
11.26,172.0
11.27,145.0
11.28,156.0
11.29,168.0
11.3,159.0
11.31,175.0
11.32,164.0
11.33,150.0
11.34,178.0
11.35,170.0
11.36,167.0
11.37,179.0
11.38,177.0
11.39,178.0
11.4,169.0
11.41,165.0
11.42,178.0
11.43,180.0
11.44,170.0
11.45,156.0
11.46,175.0
11.47,168.0
11.48,167.0
11.49,184.0
11.5,175.0
11.51,175.0
11.52,185.0
11.53,173.0
11.54,167.0
11.55,192.0
11.56,172.0
11.57,188.0
11.58,158.0
11.59,176.0
11.6,160.0
11.61,157.0
11.62,157.0
11.63,186.0
11.64,167.0
11.65,166.0
11.66,184.0
11.67,149.0
11.68,186.0
11.69,176.0
11.7,164.0
11.71,169.0
11.72,143.0
11.73,212.0
11.74,173.0
11.75,186.0
11.76,176.0
11.77,154.0
11.78,157.0
11.79,164.0
11.8,183.0
11.81,176.0
11.82,177.0
11.83,147.0
11.84,136.0
11.85,174.0
11.86,158.0
11.87,158.0
11.88,172.0
11.89,178.0
11.9,179.0
11.91,152.0
11.92,165.0
11.93,168.0
11.94,194.0
11.95,163.0
11.96,148.0
11.97,186.0
11.98,192.0
11.99,166.0
12.0,161.0
12.01,179.0
12.02,179.0
12.03,170.0
12.04,165.0
12.05,162.0
12.06,166.0
12.07,175.0
12.08,197.0
12.09,169.0
12.1,167.0
12.11,177.0
12.12,179.0
12.13,172.0
12.14,163.0
12.15,182.0
12.16,173.0
12.17,191.0
12.18,180.0
12.19,188.0
12.2,183.0
12.21,196.0
12.22,191.0
12.23,150.0
12.24,161.0
12.25,169.0
12.26,202.0
12.27,182.0
12.28,174.0
12.29,175.0
12.3,184.0
12.31,178.0
12.32,167.0
12.33,163.0
12.34,179.0
12.35,157.0
12.36,186.0
12.37,163.0
12.38,180.0
12.39,163.0
12.4,164.0
12.41,176.0
12.42,184.0
12.43,170.0
12.44,166.0
12.45,158.0
12.46,156.0
12.47,177.0
12.48,182.0
12.49,168.0
12.5,181.0
12.51,168.0
12.52,172.0
12.53,156.0
12.54,177.0
12.55,177.0
12.56,187.0
12.57,162.0
12.58,158.0
12.59,189.0
12.6,165.0
12.61,184.0
12.62,170.0
12.63,147.0
12.64,183.0
12.65,141.0
12.66,172.0
12.67,187.0
12.68,180.0
12.69,170.0
12.7,178.0
12.71,203.0
12.72,189.0
12.73,183.0
12.74,169.0
12.75,178.0
12.76,174.0
12.77,170.0
12.78,194.0
12.79,165.0
12.8,167.0
12.81,176.0
12.82,164.0
12.83,184.0
12.84,176.0
12.85,188.0
12.86,180.0
12.87,185.0
12.88,184.0
12.89,161.0
12.9,184.0
12.91,157.0
12.92,174.0
12.93,157.0
12.94,187.0
12.95,160.0
12.96,172.0
12.97,192.0
12.98,170.0
12.99,172.0
13.0,165.0
13.01,175.0
13.02,192.0
13.03,172.0
13.04,175.0
13.05,167.0
13.06,172.0
13.07,187.0
13.08,167.0
13.09,187.0
13.1,184.0
13.11,161.0
13.12,169.0
13.13,185.0
13.14,192.0
13.15,187.0
13.16,174.0
13.17,179.0
13.18,179.0
13.19,187.0
13.2,158.0
13.21,175.0
13.22,159.0
13.23,164.0
13.24,176.0
13.25,155.0
13.26,187.0
13.27,193.0
13.28,185.0
13.29,175.0
13.3,171.0
13.31,169.0
13.32,195.0
13.33,180.0
13.34,165.0
13.35,163.0
13.36,171.0
13.37,168.0
13.38,161.0
13.39,165.0
13.4,173.0
13.41,146.0
13.42,168.0
13.43,201.0
13.44,210.0
13.45,164.0
13.46,170.0
13.47,192.0
13.48,173.0
13.49,163.0
13.5,184.0
13.51,178.0
13.52,181.0
13.53,165.0
13.54,160.0
13.55,163.0
13.56,180.0
13.57,203.0
13.58,179.0
13.59,179.0
13.6,172.0
13.61,155.0
13.62,186.0
13.63,167.0
13.64,198.0
13.65,159.0
13.66,153.0
13.67,175.0
13.68,195.0
13.69,194.0
13.7,160.0
13.71,176.0
13.72,176.0
13.73,167.0
13.74,195.0
13.75,185.0
13.76,176.0
13.77,175.0
13.78,179.0
13.79,172.0
13.8,165.0
13.81,205.0
13.82,196.0
13.83,166.0
13.84,193.0
13.85,183.0
13.86,186.0
13.87,197.0
13.88,203.0
13.89,177.0
13.9,190.0
13.91,168.0
13.92,159.0
13.93,156.0
13.94,185.0
13.95,168.0
13.96,183.0
13.97,187.0
13.98,180.0
13.99,175.0
14.0,184.0
14.01,183.0
14.02,166.0
14.03,163.0
14.04,182.0
14.05,156.0
14.06,165.0
14.07,162.0
14.08,187.0
14.09,159.0
14.1,178.0
14.11,185.0
14.12,162.0
14.13,169.0
14.14,181.0
14.15,198.0
14.16,162.0
14.17,190.0
14.18,163.0
14.19,183.0
14.2,148.0
14.21,164.0
14.22,186.0
14.23,166.0
14.24,202.0
14.25,189.0
14.26,185.0
14.27,190.0
14.28,162.0
14.29,199.0
14.3,204.0
14.31,179.0
14.32,179.0
14.33,161.0
14.34,180.0
14.35,175.0
14.36,197.0
14.37,194.0
14.38,177.0
14.39,182.0
14.4,175.0
14.41,170.0
14.42,174.0
14.43,186.0
14.44,182.0
14.45,196.0
14.46,183.0
14.47,175.0
14.48,179.0
14.49,175.0
14.5,185.0
14.51,201.0
14.52,173.0
14.53,185.0
14.54,158.0
14.55,171.0
14.56,187.0
14.57,185.0
14.58,165.0
14.59,185.0
14.6,146.0
14.61,176.0
14.62,171.0
14.63,175.0
14.64,161.0
14.65,171.0
14.66,184.0
14.67,189.0
14.68,155.0
14.69,161.0
14.7,156.0
14.71,178.0
14.72,203.0
14.73,182.0
14.74,186.0
14.75,182.0
14.76,178.0
14.77,167.0
14.78,182.0
14.79,189.0
14.8,178.0
14.81,197.0
14.82,179.0
14.83,177.0
14.84,165.0
14.85,185.0
14.86,180.0
14.87,199.0
14.88,147.0
14.89,165.0
14.9,154.0
14.91,185.0
14.92,204.0
14.93,157.0
14.94,180.0
14.95,182.0
14.96,207.0
14.97,162.0
14.98,167.0
14.99,186.0
15.0,191.0
15.01,182.0
15.02,161.0
15.03,159.0
15.04,198.0
15.05,169.0
15.06,162.0
15.07,176.0
15.08,165.0
15.09,186.0
15.1,182.0
15.11,198.0
15.12,182.0
15.13,168.0
15.14,177.0
15.15,178.0
15.16,190.0
15.17,180.0
15.18,153.0
15.19,178.0
15.2,188.0
15.21,170.0
15.22,177.0
15.23,186.0
15.24,185.0
15.25,173.0
15.26,158.0
15.27,159.0
15.28,204.0
15.29,181.0
15.3,178.0
15.31,187.0
15.32,172.0
15.33,183.0
15.34,171.0
15.35,178.0
15.36,185.0
15.37,191.0
15.38,194.0
15.39,180.0
15.4,185.0
15.41,179.0
15.42,180.0
15.43,175.0
15.44,193.0
15.45,189.0
15.46,166.0
15.47,163.0
15.48,163.0
15.49,199.0
15.5,199.0
15.51,206.0
15.52,188.0
15.53,181.0
15.54,162.0
15.55,146.0
15.56,193.0
15.57,186.0
15.58,183.0
15.59,168.0
15.6,181.0
15.61,156.0
15.62,196.0
15.63,196.0
15.64,179.0
15.65,179.0
15.66,195.0
15.67,165.0
15.68,182.0
15.69,174.0
15.7,194.0
15.71,168.0
15.72,182.0
15.73,180.0
15.74,181.0
15.75,178.0
15.76,166.0
15.77,165.0
15.78,196.0
15.79,193.0
15.8,174.0
15.81,182.0
15.82,190.0
15.83,170.0
15.84,165.0
15.85,204.0
15.86,165.0
15.87,176.0
15.88,170.0
15.89,190.0
15.9,185.0
15.91,178.0
15.92,165.0
15.93,190.0
15.94,216.0
15.95,177.0
15.96,176.0
15.97,207.0
15.98,201.0
15.99,177.0
16.0,184.0
16.01,197.0
16.02,176.0
16.03,163.0
16.04,189.0
16.05,178.0
16.06,188.0
16.07,182.0
16.08,175.0
16.09,198.0
16.1,179.0
16.11,184.0
16.12,175.0
16.13,167.0
16.14,170.0
16.15,188.0
16.16,200.0
16.17,185.0
16.18,181.0
16.19,181.0
16.2,172.0
16.21,195.0
16.22,181.0
16.23,201.0
16.24,200.0
16.25,164.0
16.26,178.0
16.27,165.0
16.28,169.0
16.29,182.0
16.3,163.0
16.31,197.0
16.32,178.0
16.33,180.0
16.34,168.0
16.35,211.0
16.36,198.0
16.37,191.0
16.38,185.0
16.39,198.0
16.4,207.0
16.41,199.0
16.42,200.0
16.43,186.0
16.44,184.0
16.45,208.0
16.46,188.0
16.47,181.0
16.48,179.0
16.49,184.0
16.5,180.0
16.51,199.0
16.52,163.0
16.53,180.0
16.54,182.0
16.55,183.0
16.56,190.0
16.57,187.0
16.58,194.0
16.59,191.0
16.6,163.0
16.61,179.0
16.62,176.0
16.63,173.0
16.64,173.0
16.65,177.0
16.66,160.0
16.67,192.0
16.68,188.0
16.69,184.0
16.7,182.0
16.71,196.0
16.72,166.0
16.73,200.0
16.74,182.0
16.75,153.0
16.76,193.0
16.77,183.0
16.78,167.0
16.79,187.0
16.8,184.0
16.81,211.0
16.82,169.0
16.83,194.0
16.84,195.0
16.85,193.0
16.86,185.0
16.87,207.0
16.88,169.0
16.89,185.0
16.9,159.0
16.91,198.0
16.92,194.0
16.93,184.0
16.94,188.0
16.95,172.0
16.96,196.0
16.97,193.0
16.98,202.0
16.99,165.0
17.0,170.0
17.01,176.0
17.02,187.0
17.03,179.0
17.04,191.0
17.05,190.0
17.06,201.0
17.07,179.0
17.08,170.0
17.09,187.0
17.1,192.0
17.11,201.0
17.12,170.0
17.13,169.0
17.14,178.0
17.15,183.0
17.16,172.0
17.17,180.0
17.18,186.0
17.19,190.0
17.2,180.0
17.21,186.0
17.22,197.0
17.23,183.0
17.24,198.0
17.25,193.0
17.26,199.0
17.27,177.0
17.28,175.0
17.29,180.0
17.3,180.0
17.31,190.0
17.32,171.0
17.33,201.0
17.34,177.0
17.35,185.0
17.36,197.0
17.37,188.0
17.38,185.0
17.39,187.0
17.4,183.0
17.41,169.0
17.42,209.0
17.43,167.0
17.44,187.0
17.45,191.0
17.46,202.0
17.47,207.0
17.48,183.0
17.49,216.0
17.5,196.0
17.51,189.0
17.52,199.0
17.53,183.0
17.54,175.0
17.55,174.0
17.56,203.0
17.57,202.0
17.58,180.0
17.59,172.0
17.6,203.0
17.61,207.0
17.62,175.0
17.63,177.0
17.64,173.0
17.65,200.0
17.66,173.0
17.67,183.0
17.68,162.0
17.69,195.0
17.7,165.0
17.71,198.0
17.72,199.0
17.73,173.0
17.74,199.0
17.75,188.0
17.76,190.0
17.77,177.0
17.78,211.0
17.79,198.0
17.8,178.0
17.81,201.0
17.82,171.0
17.83,189.0
17.84,197.0
17.85,189.0
17.86,189.0
17.87,172.0
17.88,185.0
17.89,188.0
17.9,193.0
17.91,179.0
17.92,175.0
17.93,192.0
17.94,173.0
17.95,184.0
17.96,205.0
17.97,178.0
17.98,189.0
17.99,192.0
18.0,194.0
18.01,196.0
18.02,193.0
18.03,188.0
18.04,175.0
18.05,183.0
18.06,180.0
18.07,190.0
18.08,196.0
18.09,215.0
18.1,156.0
18.11,201.0
18.12,193.0
18.13,184.0
18.14,209.0
18.15,182.0
18.16,206.0
18.17,183.0
18.18,172.0
18.19,212.0
18.2,191.0
18.21,190.0
18.22,178.0
18.23,192.0
18.24,189.0
18.25,174.0
18.26,200.0
18.27,182.0
18.28,198.0
18.29,203.0
18.3,198.0
18.31,199.0
18.32,194.0
18.33,188.0
18.34,194.0
18.35,206.0
18.36,191.0
18.37,217.0
18.38,186.0
18.39,177.0
18.4,187.0
18.41,188.0
18.42,185.0
18.43,182.0
18.44,192.0
18.45,187.0
18.46,195.0
18.47,179.0
18.48,198.0
18.49,196.0
18.5,203.0
18.51,229.0
18.52,191.0
18.53,216.0
18.54,169.0
18.55,184.0
18.56,170.0
18.57,157.0
18.58,205.0
18.59,182.0
18.6,193.0
18.61,166.0
18.62,203.0
18.63,173.0
18.64,211.0
18.65,189.0
18.66,182.0
18.67,197.0
18.68,187.0
18.69,186.0
18.7,189.0
18.71,185.0
18.72,163.0
18.73,194.0
18.74,202.0
18.75,207.0
18.76,192.0
18.77,184.0
18.78,208.0
18.79,203.0
18.8,186.0
18.81,194.0
18.82,171.0
18.83,181.0
18.84,191.0
18.85,182.0
18.86,206.0
18.87,201.0
18.88,173.0
18.89,215.0
18.9,168.0
18.91,176.0
18.92,188.0
18.93,207.0
18.94,187.0
18.95,179.0
18.96,191.0
18.97,185.0
18.98,178.0
18.99,182.0
19.0,174.0
19.01,201.0
19.02,193.0
19.03,172.0
19.04,199.0
19.05,183.0
19.06,213.0
19.07,189.0
19.08,226.0
19.09,195.0
19.1,181.0
19.11,192.0
19.12,191.0
19.13,173.0
19.14,199.0
19.15,201.0
19.16,199.0
19.17,179.0
19.18,167.0
19.19,190.0
19.2,203.0
19.21,181.0
19.22,182.0
19.23,201.0
19.24,184.0
19.25,191.0
19.26,188.0
19.27,183.0
19.28,202.0
19.29,193.0
19.3,182.0
19.31,201.0
19.32,186.0
19.33,196.0
19.34,214.0
19.35,203.0
19.36,185.0
19.37,193.0
19.38,197.0
19.39,176.0
19.4,216.0
19.41,185.0
19.42,204.0
19.43,184.0
19.44,210.0
19.45,186.0
19.46,167.0
19.47,215.0
19.48,207.0
19.49,186.0
19.5,212.0
19.51,216.0
19.52,203.0
19.53,179.0
19.54,182.0
19.55,193.0
19.56,202.0
19.57,197.0
19.58,215.0
19.59,196.0
19.6,189.0
19.61,205.0
19.62,164.0
19.63,182.0
19.64,190.0
19.65,176.0
19.66,178.0
19.67,182.0
19.68,173.0
19.69,176.0
19.7,201.0
19.71,196.0
19.72,184.0
19.73,189.0
19.74,227.0
19.75,196.0
19.76,193.0
19.77,202.0
19.78,201.0
19.79,193.0
19.8,208.0
19.81,176.0
19.82,189.0
19.83,198.0
19.84,178.0
19.85,178.0
19.86,207.0
19.87,203.0
19.88,179.0
19.89,196.0
19.9,186.0
19.91,167.0
19.92,184.0
19.93,197.0
19.94,167.0
19.95,197.0
19.96,191.0
19.97,183.0
19.98,220.0
19.99,175.0
20.0,214.0
20.01,193.0
20.02,165.0
20.03,186.0
20.04,221.0
20.05,194.0
20.06,177.0
20.07,213.0
20.08,197.0
20.09,202.0
20.1,206.0
20.11,193.0
20.12,183.0
20.13,220.0
20.14,180.0
20.15,192.0
20.16,221.0
20.17,186.0
20.18,198.0
20.19,187.0
20.2,194.0
20.21,217.0
20.22,190.0
20.23,219.0
20.24,182.0
20.25,185.0
20.26,212.0
20.27,176.0
20.28,192.0
20.29,177.0
20.3,191.0
20.31,197.0
20.32,212.0
20.33,177.0
20.34,192.0
20.35,179.0
20.36,175.0
20.37,197.0
20.38,184.0
20.39,206.0
20.4,197.0
20.41,193.0
20.42,194.0
20.43,191.0
20.44,206.0
20.45,200.0
20.46,190.0
20.47,190.0
20.48,202.0
20.49,202.0
20.5,208.0
20.51,194.0
20.52,188.0
20.53,180.0
20.54,208.0
20.55,201.0
20.56,197.0
20.57,187.0
20.58,196.0
20.59,183.0
20.6,192.0
20.61,207.0
20.62,192.0
20.63,165.0
20.64,211.0
20.65,183.0
20.66,179.0
20.67,189.0
20.68,177.0
20.69,188.0
20.7,204.0
20.71,201.0
20.72,197.0
20.73,187.0
20.74,194.0
20.75,199.0
20.76,214.0
20.77,168.0
20.78,173.0
20.79,226.0
20.8,185.0
20.81,184.0
20.82,201.0
20.83,192.0
20.84,201.0
20.85,187.0
20.86,198.0
20.87,202.0
20.88,189.0
20.89,201.0
20.9,200.0
20.91,222.0
20.92,208.0
20.93,180.0
20.94,190.0
20.95,186.0
20.96,177.0
20.97,216.0
20.98,198.0
20.99,192.0
21.0,210.0
21.01,188.0
21.02,210.0
21.03,200.0
21.04,201.0
21.05,196.0
21.06,191.0
21.07,195.0
21.08,165.0
21.09,202.0
21.1,213.0
21.11,198.0
21.12,213.0
21.13,222.0
21.14,171.0
21.15,176.0
21.16,172.0
21.17,202.0
21.18,175.0
21.19,183.0
21.2,182.0
21.21,222.0
21.22,202.0
21.23,203.0
21.24,195.0
21.25,194.0
21.26,205.0
21.27,176.0
21.28,200.0
21.29,187.0
21.3,201.0
21.31,170.0
21.32,204.0
21.33,197.0
21.34,211.0
21.35,217.0
21.36,191.0
21.37,189.0
21.38,178.0
21.39,196.0
21.4,171.0
21.41,198.0
21.42,220.0
21.43,186.0
21.44,199.0
21.45,181.0
21.46,194.0
21.47,194.0
21.48,204.0
21.49,181.0
21.5,190.0
21.51,190.0
21.52,198.0
21.53,189.0
21.54,182.0
21.55,189.0
21.56,170.0
21.57,193.0
21.58,179.0
21.59,204.0
21.6,180.0
21.61,225.0
21.62,210.0
21.63,193.0
21.64,220.0
21.65,218.0
21.66,202.0
21.67,187.0
21.68,178.0
21.69,201.0
21.7,194.0
21.71,213.0
21.72,174.0
21.73,187.0
21.74,172.0
21.75,174.0
21.76,183.0
21.77,181.0
21.78,199.0
21.79,204.0
21.8,166.0
21.81,184.0
21.82,201.0
21.83,196.0
21.84,197.0
21.85,193.0
21.86,190.0
21.87,215.0
21.88,201.0
21.89,195.0
21.9,203.0
21.91,208.0
21.92,221.0
21.93,176.0
21.94,183.0
21.95,185.0
21.96,185.0
21.97,215.0
21.98,216.0
21.99,186.0
22.0,176.0
22.01,219.0
22.02,218.0
22.03,199.0
22.04,206.0
22.05,189.0
22.06,196.0
22.07,210.0
22.08,185.0
22.09,172.0
22.1,195.0
22.11,179.0
22.12,194.0
22.13,190.0
22.14,210.0
22.15,214.0
22.16,221.0
22.17,207.0
22.18,207.0
22.19,186.0
22.2,182.0
22.21,227.0
22.22,208.0
22.23,201.0
22.24,209.0
22.25,196.0
22.26,177.0
22.27,180.0
22.28,194.0
22.29,203.0
22.3,183.0
22.31,218.0
22.32,202.0
22.33,163.0
22.34,195.0
22.35,215.0
22.36,177.0
22.37,232.0
22.38,203.0
22.39,198.0
22.4,200.0
22.41,189.0
22.42,191.0
22.43,188.0
22.44,210.0
22.45,213.0
22.46,183.0
22.47,226.0
22.48,191.0
22.49,191.0
22.5,216.0
22.51,187.0
22.52,216.0
22.53,218.0
22.54,206.0
22.55,230.0
22.56,177.0
22.57,180.0
22.58,210.0
22.59,187.0
22.6,191.0
22.61,201.0
22.62,201.0
22.63,207.0
22.64,200.0
22.65,230.0
22.66,185.0
22.67,204.0
22.68,207.0
22.69,202.0
22.7,202.0
22.71,199.0
22.72,194.0
22.73,204.0
22.74,190.0
22.75,218.0
22.76,166.0
22.77,195.0
22.78,200.0
22.79,206.0
22.8,212.0
22.81,200.0
22.82,193.0
22.83,189.0
22.84,192.0
22.85,180.0
22.86,190.0
22.87,203.0
22.88,178.0
22.89,204.0
22.9,199.0
22.91,198.0
22.92,197.0
22.93,187.0
22.94,198.0
22.95,178.0
22.96,207.0
22.97,203.0
22.98,202.0
22.99,180.0
23.0,209.0
23.01,199.0
23.02,216.0
23.03,184.0
23.04,203.0
23.05,174.0
23.06,225.0
23.07,213.0
23.08,210.0
23.09,204.0
23.1,188.0
23.11,203.0
23.12,191.0
23.13,191.0
23.14,207.0
23.15,195.0
23.16,192.0
23.17,200.0
23.18,178.0
23.19,207.0
23.2,214.0
23.21,187.0
23.22,218.0
23.23,199.0
23.24,215.0
23.25,213.0
23.26,231.0
23.27,206.0
23.28,194.0
23.29,201.0
23.3,195.0
23.31,198.0
23.32,185.0
23.33,192.0
23.34,187.0
23.35,205.0
23.36,211.0
23.37,173.0
23.38,237.0
23.39,202.0
23.4,211.0
23.41,188.0
23.42,211.0
23.43,214.0
23.44,169.0
23.45,205.0
23.46,202.0
23.47,169.0
23.48,192.0
23.49,207.0
23.5,177.0
23.51,215.0
23.52,196.0
23.53,187.0
23.54,199.0
23.55,213.0
23.56,196.0
23.57,184.0
23.58,199.0
23.59,191.0
23.6,184.0
23.61,205.0
23.62,199.0
23.63,178.0
23.64,199.0
23.65,200.0
23.66,200.0
23.67,220.0
23.68,176.0
23.69,199.0
23.7,206.0
23.71,214.0
23.72,165.0
23.73,187.0
23.74,186.0
23.75,189.0
23.76,190.0
23.77,207.0
23.78,206.0
23.79,234.0
23.8,226.0
23.81,196.0
23.82,210.0
23.83,219.0
23.84,206.0
23.85,204.0
23.86,216.0
23.87,207.0
23.88,198.0
23.89,195.0
23.9,197.0
23.91,185.0
23.92,210.0
23.93,214.0
23.94,214.0
23.95,185.0
23.96,187.0
23.97,188.0
23.98,206.0
23.99,224.0
24.0,211.0
24.01,208.0
24.02,232.0
24.03,212.0
24.04,236.0
24.05,209.0
24.06,225.0
24.07,205.0
24.08,205.0
24.09,222.0
24.1,228.0
24.11,244.0
24.12,236.0
24.13,231.0
24.14,232.0
24.15,244.0
24.16,271.0
24.17,238.0
24.18,243.0
24.19,234.0
24.2,215.0
24.21,240.0
24.22,259.0
24.23,247.0
24.24,231.0
24.25,258.0
24.26,245.0
24.27,229.0
24.28,228.0
24.29,229.0
24.3,238.0
24.31,216.0
24.32,214.0
24.33,193.0
24.34,230.0
24.35,176.0
24.36,194.0
24.37,221.0
24.38,216.0
24.39,204.0
24.4,186.0
24.41,225.0
24.42,207.0
24.43,210.0
24.44,227.0
24.45,211.0
24.46,209.0
24.47,205.0
24.48,216.0
24.49,205.0
24.5,186.0
24.51,222.0
24.52,196.0
24.53,203.0
24.54,225.0
24.55,192.0
24.56,224.0
24.57,179.0
24.58,192.0
24.59,208.0
24.6,172.0
24.61,216.0
24.62,201.0
24.63,217.0
24.64,217.0
24.65,192.0
24.66,224.0
24.67,195.0
24.68,231.0
24.69,189.0
24.7,200.0
24.71,205.0
24.72,219.0
24.73,196.0
24.74,192.0
24.75,214.0
24.76,189.0
24.77,219.0
24.78,207.0
24.79,194.0
24.8,201.0
24.81,197.0
24.82,220.0
24.83,212.0
24.84,185.0
24.85,211.0
24.86,216.0
24.87,197.0
24.88,242.0
24.89,203.0
24.9,183.0
24.91,223.0
24.92,199.0
24.93,173.0
24.94,196.0
24.95,195.0
24.96,208.0
24.97,207.0
24.98,195.0
24.99,184.0
25.0,186.0
25.01,214.0
25.02,212.0
25.03,192.0
25.04,195.0
25.05,218.0
25.06,213.0
25.07,210.0
25.08,197.0
25.09,219.0
25.1,195.0
25.11,189.0
25.12,197.0
25.13,182.0
25.14,216.0
25.15,201.0
25.16,191.0
25.17,179.0
25.18,194.0
25.19,200.0
25.2,192.0
25.21,204.0
25.22,195.0
25.23,207.0
25.24,219.0
25.25,206.0
25.26,212.0
25.27,188.0
25.28,185.0
25.29,182.0
25.3,208.0
25.31,207.0
25.32,183.0
25.33,202.0
25.34,214.0
25.35,194.0
25.36,173.0
25.37,191.0
25.38,188.0
25.39,218.0
25.4,188.0
25.41,210.0
25.42,186.0
25.43,191.0
25.44,200.0
25.45,187.0
25.46,234.0
25.47,188.0
25.48,215.0
25.49,189.0
25.5,226.0
25.51,188.0
25.52,216.0
25.53,206.0
25.54,219.0
25.55,215.0
25.56,195.0
25.57,220.0
25.58,196.0
25.59,180.0
25.6,201.0
25.61,214.0
25.62,203.0
25.63,209.0
25.64,220.0
25.65,209.0
25.66,222.0
25.67,192.0
25.68,186.0
25.69,221.0
25.7,212.0
25.71,221.0
25.72,196.0
25.73,224.0
25.74,195.0
25.75,208.0
25.76,215.0
25.77,204.0
25.78,213.0
25.79,178.0
25.8,166.0
25.81,206.0
25.82,198.0
25.83,178.0
25.84,190.0
25.85,192.0
25.86,197.0
25.87,169.0
25.88,226.0
25.89,206.0
25.9,203.0
25.91,182.0
25.92,198.0
25.93,216.0
25.94,202.0
25.95,218.0
25.96,200.0
25.97,216.0
25.98,193.0
25.99,200.0
26.0,190.0
26.01,188.0
26.02,193.0
26.03,190.0
26.04,191.0
26.05,219.0
26.06,211.0
26.07,218.0
26.08,208.0
26.09,195.0
26.1,217.0
26.11,201.0
26.12,211.0
26.13,220.0
26.14,219.0
26.15,188.0
26.16,192.0
26.17,213.0
26.18,212.0
26.19,195.0
26.2,208.0
26.21,224.0
26.22,232.0
26.23,228.0
26.24,230.0
26.25,214.0
26.26,215.0
26.27,208.0
26.28,205.0
26.29,209.0
26.3,197.0
26.31,211.0
26.32,199.0
26.33,173.0
26.34,225.0
26.35,218.0
26.36,224.0
26.37,190.0
26.38,202.0
26.39,188.0
26.4,213.0
26.41,195.0
26.42,204.0
26.43,217.0
26.44,203.0
26.45,198.0
26.46,251.0
26.47,202.0
26.48,190.0
26.49,208.0
26.5,196.0
26.51,189.0
26.52,185.0
26.53,169.0
26.54,194.0
26.55,206.0
26.56,211.0
26.57,223.0
26.58,191.0
26.59,191.0
26.6,190.0
26.61,195.0
26.62,212.0
26.63,232.0
26.64,201.0
26.65,195.0
26.66,196.0
26.67,182.0
26.68,220.0
26.69,206.0
26.7,181.0
26.71,186.0
26.72,218.0
26.73,213.0
26.74,198.0
26.75,182.0
26.76,215.0
26.77,189.0
26.78,182.0
26.79,193.0
26.8,245.0
26.81,191.0
26.82,196.0
26.83,198.0
26.84,204.0
26.85,204.0
26.86,213.0
26.87,195.0
26.88,180.0
26.89,173.0
26.9,205.0
26.91,195.0
26.92,191.0
26.93,198.0
26.94,220.0
26.95,225.0
26.96,184.0
26.97,237.0
26.98,209.0
26.99,171.0
27.0,233.0
27.01,196.0
27.02,217.0
27.03,212.0
27.04,188.0
27.05,218.0
27.06,200.0
27.07,215.0
27.08,181.0
27.09,238.0
27.1,209.0
27.11,228.0
27.12,225.0
27.13,191.0
27.14,251.0
27.15,215.0
27.16,209.0
27.17,203.0
27.18,182.0
27.19,204.0
27.2,215.0
27.21,199.0
27.22,231.0
27.23,204.0
27.24,176.0
27.25,214.0
27.26,188.0
27.27,205.0
27.28,219.0
27.29,218.0
27.3,192.0
27.31,214.0
27.32,212.0
27.33,195.0
27.34,216.0
27.35,222.0
27.36,220.0
27.37,212.0
27.38,231.0
27.39,207.0
27.4,224.0
27.41,204.0
27.42,207.0
27.43,176.0
27.44,212.0
27.45,228.0
27.46,181.0
27.47,208.0
27.48,237.0
27.49,213.0
27.5,208.0
27.51,208.0
27.52,189.0
27.53,218.0
27.54,185.0
27.55,193.0
27.56,210.0
27.57,226.0
27.58,224.0
27.59,223.0
27.6,223.0
27.61,248.0
27.62,201.0
27.63,215.0
27.64,224.0
27.65,220.0
27.66,215.0
27.67,200.0
27.68,209.0
27.69,214.0
27.7,186.0
27.71,194.0
27.72,196.0
27.73,209.0
27.74,202.0
27.75,200.0
27.76,195.0
27.77,205.0
27.78,204.0
27.79,191.0
27.8,225.0
27.81,182.0
27.82,206.0
27.83,191.0
27.84,233.0
27.85,200.0
27.86,199.0
27.87,184.0
27.88,200.0
27.89,198.0
27.9,218.0
27.91,208.0
27.92,223.0
27.93,202.0
27.94,220.0
27.95,215.0
27.96,206.0
27.97,226.0
27.98,208.0
27.99,204.0
28.0,215.0
28.01,196.0
28.02,212.0
28.03,212.0
28.04,224.0
28.05,186.0
28.06,191.0
28.07,229.0
28.08,197.0
28.09,194.0
28.1,218.0
28.11,220.0
28.12,206.0
28.13,184.0
28.14,198.0
28.15,199.0
28.16,184.0
28.17,201.0
28.18,219.0
28.19,201.0
28.2,200.0
28.21,222.0
28.22,201.0
28.23,209.0
28.24,226.0
28.25,220.0
28.26,226.0
28.27,201.0
28.28,191.0
28.29,180.0
28.3,204.0
28.31,216.0
28.32,202.0
28.33,202.0
28.34,204.0
28.35,220.0
28.36,169.0
28.37,213.0
28.38,198.0
28.39,212.0
28.4,209.0
28.41,211.0
28.42,216.0
28.43,206.0
28.44,191.0
28.45,180.0
28.46,187.0
28.47,204.0
28.48,214.0
28.49,190.0
28.5,228.0
28.51,202.0
28.52,208.0
28.53,198.0
28.54,203.0
28.55,212.0
28.56,198.0
28.57,236.0
28.58,221.0
28.59,201.0
28.6,190.0
28.61,188.0
28.62,198.0
28.63,203.0
28.64,197.0
28.65,229.0
28.66,195.0
28.67,222.0
28.68,198.0
28.69,198.0
28.7,226.0
28.71,202.0
28.72,198.0
28.73,203.0
28.74,218.0
28.75,174.0
28.76,216.0
28.77,219.0
28.78,230.0
28.79,219.0
28.8,193.0
28.81,205.0
28.82,219.0
28.83,203.0
28.84,183.0
28.85,205.0
28.86,209.0
28.87,176.0
28.88,211.0
28.89,212.0
28.9,201.0
28.91,200.0
28.92,194.0
28.93,213.0
28.94,213.0
28.95,209.0
28.96,202.0
28.97,198.0
28.98,188.0
28.99,192.0
29.0,193.0
29.01,212.0
29.02,187.0
29.03,200.0
29.04,215.0
29.05,184.0
29.06,195.0
29.07,201.0
29.08,216.0
29.09,218.0
29.1,217.0
29.11,218.0
29.12,210.0
29.13,198.0
29.14,193.0
29.15,201.0
29.16,204.0
29.17,215.0
29.18,197.0
29.19,183.0
29.2,180.0
29.21,210.0
29.22,209.0
29.23,223.0
29.24,221.0
29.25,181.0
29.26,211.0
29.27,184.0
29.28,208.0
29.29,227.0
29.3,228.0
29.31,189.0
29.32,201.0
29.33,205.0
29.34,204.0
29.35,231.0
29.36,199.0
29.37,198.0
29.38,192.0
29.39,220.0
29.4,221.0
29.41,195.0
29.42,211.0
29.43,211.0
29.44,219.0
29.45,197.0
29.46,197.0
29.47,237.0
29.48,222.0
29.49,213.0
29.5,213.0
29.51,210.0
29.52,194.0
29.53,220.0
29.54,207.0
29.55,206.0
29.56,210.0
29.57,203.0
29.58,196.0
29.59,214.0
29.6,191.0
29.61,210.0
29.62,214.0
29.63,215.0
29.64,216.0
29.65,199.0
29.66,218.0
29.67,203.0
29.68,211.0
29.69,236.0
29.7,189.0
29.71,200.0
29.72,213.0
29.73,196.0
29.74,218.0
29.75,199.0
29.76,181.0
29.77,185.0
29.78,208.0
29.79,214.0
29.8,197.0
29.81,200.0
29.82,193.0
29.83,215.0
29.84,216.0
29.85,218.0
29.86,224.0
29.87,211.0
29.88,196.0
29.89,214.0
29.9,205.0
29.91,212.0
29.92,219.0
29.93,168.0
29.94,198.0
29.95,236.0
29.96,191.0
29.97,213.0
29.98,209.0
29.99,232.0
30.0,198.0
30.01,222.0
30.02,216.0
30.03,201.0
30.04,182.0
30.05,196.0
30.06,194.0
30.07,212.0
30.08,232.0
30.09,208.0
30.1,196.0
30.11,214.0
30.12,194.0
30.13,220.0
30.14,188.0
30.15,207.0
30.16,205.0
30.17,206.0
30.18,191.0
30.19,226.0
30.2,183.0
30.21,192.0
30.22,204.0
30.23,213.0
30.24,215.0
30.25,215.0
30.26,189.0
30.27,207.0
30.28,187.0
30.29,197.0
30.3,218.0
30.31,220.0
30.32,205.0
30.33,193.0
30.34,211.0
30.35,209.0
30.36,198.0
30.37,203.0
30.38,211.0
30.39,208.0
30.4,201.0
30.41,233.0
30.42,213.0
30.43,224.0
30.44,209.0
30.45,226.0
30.46,193.0
30.47,214.0
30.48,184.0
30.49,207.0
30.5,211.0
30.51,216.0
30.52,210.0
30.53,205.0
30.54,213.0
30.55,195.0
30.56,206.0
30.57,223.0
30.58,219.0
30.59,218.0
30.6,214.0
30.61,209.0
30.62,202.0
30.63,200.0
30.64,202.0
30.65,225.0
30.66,223.0
30.67,191.0
30.68,252.0
30.69,210.0
30.7,216.0
30.71,242.0
30.72,238.0
30.73,197.0
30.74,220.0
30.75,194.0
30.76,218.0
30.77,208.0
30.78,208.0
30.79,201.0
30.8,205.0
30.81,258.0
30.82,182.0
30.83,189.0
30.84,223.0
30.85,194.0
30.86,232.0
30.87,218.0
30.88,217.0
30.89,237.0
30.9,181.0
30.91,217.0
30.92,194.0
30.93,202.0
30.94,212.0
30.95,206.0
30.96,190.0
30.97,205.0
30.98,205.0
30.99,192.0
31.0,238.0
31.01,218.0
31.02,197.0
31.03,210.0
31.04,190.0
31.05,224.0
31.06,205.0
31.07,204.0
31.08,207.0
31.09,215.0
31.1,212.0
31.11,224.0
31.12,194.0
31.13,208.0
31.14,231.0
31.15,203.0
31.16,216.0
31.17,234.0
31.18,210.0
31.19,191.0
31.2,196.0
31.21,176.0
31.22,192.0
31.23,205.0
31.24,219.0
31.25,200.0
31.26,207.0
31.27,199.0
31.28,235.0
31.29,205.0
31.3,206.0
31.31,204.0
31.32,200.0
31.33,201.0
31.34,221.0
31.35,195.0
31.36,193.0
31.37,199.0
31.38,205.0
31.39,206.0
31.4,224.0
31.41,216.0
31.42,221.0
31.43,227.0
31.44,186.0
31.45,217.0
31.46,204.0
31.47,210.0
31.48,203.0
31.49,213.0
31.5,192.0
31.51,202.0
31.52,191.0
31.53,215.0
31.54,212.0
31.55,217.0
31.56,193.0
31.57,205.0
31.58,181.0
31.59,220.0
31.6,237.0
31.61,220.0
31.62,248.0
31.63,185.0
31.64,204.0
31.65,220.0
31.66,200.0
31.67,213.0
31.68,209.0
31.69,211.0
31.7,228.0
31.71,202.0
31.72,228.0
31.73,219.0
31.74,182.0
31.75,197.0
31.76,220.0
31.77,214.0
31.78,217.0
31.79,204.0
31.8,219.0
31.81,209.0
31.82,203.0
31.83,190.0
31.84,196.0
31.85,196.0
31.86,189.0
31.87,195.0
31.88,210.0
31.89,234.0
31.9,212.0
31.91,235.0
31.92,227.0
31.93,224.0
31.94,214.0
31.95,211.0
31.96,217.0
31.97,228.0
31.98,214.0
31.99,216.0
32.0,222.0
32.01,225.0
32.02,204.0
32.03,202.0
32.04,221.0
32.05,216.0
32.06,194.0
32.07,231.0
32.08,217.0
32.09,208.0
32.1,214.0
32.11,234.0
32.12,215.0
32.13,213.0
32.14,200.0
32.15,235.0
32.16,215.0
32.17,201.0
32.18,227.0
32.19,200.0
32.2,218.0
32.21,192.0
32.22,208.0
32.23,214.0
32.24,245.0
32.25,191.0
32.26,195.0
32.27,204.0
32.28,203.0
32.29,226.0
32.3,198.0
32.31,208.0
32.32,210.0
32.33,203.0
32.34,258.0
32.35,223.0
32.36,218.0
32.37,206.0
32.38,232.0
32.39,207.0
32.4,191.0
32.41,234.0
32.42,214.0
32.43,237.0
32.44,211.0
32.45,222.0
32.46,212.0
32.47,198.0
32.48,194.0
32.49,230.0
32.5,227.0
32.51,225.0
32.52,216.0
32.53,208.0
32.54,208.0
32.55,222.0
32.56,216.0
32.57,206.0
32.58,226.0
32.59,238.0
32.6,206.0
32.61,197.0
32.62,207.0
32.63,222.0
32.64,213.0
32.65,223.0
32.66,199.0
32.67,237.0
32.68,195.0
32.69,193.0
32.7,240.0
32.71,195.0
32.72,209.0
32.73,191.0
32.74,228.0
32.75,229.0
32.76,228.0
32.77,244.0
32.78,217.0
32.79,204.0
32.8,191.0
32.81,203.0
32.82,212.0
32.83,212.0
32.84,208.0
32.85,220.0
32.86,218.0
32.87,229.0
32.88,194.0
32.89,246.0
32.9,192.0
32.91,221.0
32.92,242.0
32.93,204.0
32.94,233.0
32.95,250.0
32.96,220.0
32.97,230.0
32.98,238.0
32.99,249.0
33.0,246.0
33.01,240.0
33.02,233.0
33.03,260.0
33.04,242.0
33.05,277.0
33.06,266.0
33.07,274.0
33.08,244.0
33.09,268.0
33.1,287.0
33.11,290.0
33.12,306.0
33.13,328.0
33.14,302.0
33.15,332.0
33.16,359.0
33.17,391.0
33.18,412.0
33.19,409.0
33.2,430.0
33.21,435.0
33.22,380.0
33.23,428.0
33.24,393.0
33.25,361.0
33.26,375.0
33.27,404.0
33.28,389.0
33.29,352.0
33.3,353.0
33.31,354.0
33.32,333.0
33.33,292.0
33.34,278.0
33.35,277.0
33.36,297.0
33.37,297.0
33.38,254.0
33.39,263.0
33.4,251.0
33.41,254.0
33.42,253.0
33.43,248.0
33.44,231.0
33.45,227.0
33.46,216.0
33.47,218.0
33.48,226.0
33.49,233.0
33.5,248.0
33.51,229.0
33.52,229.0
33.53,226.0
33.54,229.0
33.55,225.0
33.56,248.0
33.57,231.0
33.58,233.0
33.59,204.0
33.6,211.0
33.61,234.0
33.62,227.0
33.63,223.0
33.64,219.0
33.65,225.0
33.66,198.0
33.67,207.0
33.68,217.0
33.69,216.0
33.7,223.0
33.71,219.0
33.72,220.0
33.73,188.0
33.74,199.0
33.75,226.0
33.76,251.0
33.77,195.0
33.78,215.0
33.79,223.0
33.8,221.0
33.81,214.0
33.82,191.0
33.83,226.0
33.84,222.0
33.85,228.0
33.86,216.0
33.87,229.0
33.88,190.0
33.89,224.0
33.9,242.0
33.91,234.0
33.92,220.0
33.93,207.0
33.94,224.0
33.95,207.0
33.96,216.0
33.97,215.0
33.98,188.0
33.99,234.0
34.0,246.0
34.01,212.0
34.02,216.0
34.03,221.0
34.04,218.0
34.05,224.0
34.06,233.0
34.07,187.0
34.08,194.0
34.09,227.0
34.1,209.0
34.11,198.0
34.12,241.0
34.13,202.0
34.14,230.0
34.15,217.0
34.16,203.0
34.17,207.0
34.18,239.0
34.19,233.0
34.2,192.0
34.21,221.0
34.22,207.0
34.23,184.0
34.24,214.0
34.25,215.0
34.26,209.0
34.27,225.0
34.28,213.0
34.29,201.0
34.3,227.0
34.31,211.0
34.32,222.0
34.33,222.0
34.34,169.0
34.35,215.0
34.36,186.0
34.37,243.0
34.38,219.0
34.39,234.0
34.4,239.0
34.41,204.0
34.42,196.0
34.43,181.0
34.44,219.0
34.45,227.0
34.46,224.0
34.47,200.0
34.48,214.0
34.49,208.0
34.5,186.0
34.51,242.0
34.52,220.0
34.53,204.0
34.54,204.0
34.55,257.0
34.56,210.0
34.57,198.0
34.58,228.0
34.59,224.0
34.6,214.0
34.61,218.0
34.62,203.0
34.63,213.0
34.64,204.0
34.65,227.0
34.66,234.0
34.67,201.0
34.68,208.0
34.69,205.0
34.7,210.0
34.71,237.0
34.72,201.0
34.73,242.0
34.74,243.0
34.75,220.0
34.76,233.0
34.77,224.0
34.78,200.0
34.79,237.0
34.8,210.0
34.81,210.0
34.82,231.0
34.83,203.0
34.84,208.0
34.85,185.0
34.86,196.0
34.87,216.0
34.88,212.0
34.89,169.0
34.9,186.0
34.91,195.0
34.92,206.0
34.93,235.0
34.94,230.0
34.95,214.0
34.96,215.0
34.97,198.0
34.98,201.0
34.99,232.0
35.0,216.0
35.01,216.0
35.02,211.0
35.03,227.0
35.04,204.0
35.05,235.0
35.06,189.0
35.07,219.0
35.08,209.0
35.09,239.0
35.1,231.0
35.11,223.0
35.12,194.0
35.13,199.0
35.14,245.0
35.15,201.0
35.16,212.0
35.17,211.0
35.18,231.0
35.19,180.0
35.2,224.0
35.21,204.0
35.22,200.0
35.23,229.0
35.24,197.0
35.25,206.0
35.26,218.0
35.27,244.0
35.28,205.0
35.29,224.0
35.3,216.0
35.31,216.0
35.32,215.0
35.33,209.0
35.34,206.0
35.35,196.0
35.36,233.0
35.37,234.0
35.38,205.0
35.39,243.0
35.4,201.0
35.41,258.0
35.42,222.0
35.43,212.0
35.44,253.0
35.45,206.0
35.46,265.0
35.47,224.0
35.48,235.0
35.49,203.0
35.5,248.0
35.51,243.0
35.52,232.0
35.53,244.0
35.54,236.0
35.55,226.0
35.56,241.0
35.57,263.0
35.58,254.0
35.59,244.0
35.6,293.0
35.61,279.0
35.62,266.0
35.63,297.0
35.64,316.0
35.65,331.0
35.66,337.0
35.67,307.0
35.68,338.0
35.69,331.0
35.7,336.0
35.71,301.0
35.72,347.0
35.73,306.0
35.74,329.0
35.75,306.0
35.76,282.0
35.77,305.0
35.78,279.0
35.79,292.0
35.8,295.0
35.81,251.0
35.82,270.0
35.83,283.0
35.84,246.0
35.85,233.0
35.86,239.0
35.87,230.0
35.88,218.0
35.89,247.0
35.9,247.0
35.91,218.0
35.92,212.0
35.93,226.0
35.94,257.0
35.95,208.0
35.96,234.0
35.97,217.0
35.98,209.0
35.99,221.0
36.0,244.0
36.01,222.0
36.02,218.0
36.03,220.0
36.04,227.0
36.05,221.0
36.06,223.0
36.07,234.0
36.08,244.0
36.09,206.0
36.1,218.0
36.11,223.0
36.12,219.0
36.13,216.0
36.14,222.0
36.15,216.0
36.16,216.0
36.17,221.0
36.18,213.0
36.19,224.0
36.2,186.0
36.21,232.0
36.22,222.0
36.23,230.0
36.24,225.0
36.25,213.0
36.26,230.0
36.27,215.0
36.28,222.0
36.29,192.0
36.3,197.0
36.31,214.0
36.32,205.0
36.33,209.0
36.34,220.0
36.35,219.0
36.36,211.0
36.37,197.0
36.38,197.0
36.39,209.0
36.4,234.0
36.41,231.0
36.42,213.0
36.43,218.0
36.44,203.0
36.45,193.0
36.46,202.0
36.47,194.0
36.48,210.0
36.49,212.0
36.5,204.0
36.51,217.0
36.52,212.0
36.53,222.0
36.54,225.0
36.55,231.0
36.56,229.0
36.57,213.0
36.58,189.0
36.59,194.0
36.6,185.0
36.61,233.0
36.62,236.0
36.63,208.0
36.64,197.0
36.65,249.0
36.66,228.0
36.67,216.0
36.68,211.0
36.69,215.0
36.7,210.0
36.71,232.0
36.72,214.0
36.73,215.0
36.74,204.0
36.75,221.0
36.76,207.0
36.77,233.0
36.78,226.0
36.79,203.0
36.8,207.0
36.81,196.0
36.82,188.0
36.83,218.0
36.84,213.0
36.85,223.0
36.86,228.0
36.87,206.0
36.88,206.0
36.89,216.0
36.9,218.0
36.91,238.0
36.92,208.0
36.93,217.0
36.94,209.0
36.95,178.0
36.96,201.0
36.97,218.0
36.98,195.0
36.99,207.0
37.0,226.0
37.01,239.0
37.02,210.0
37.03,234.0
37.04,210.0
37.05,226.0
37.06,239.0
37.07,193.0
37.08,174.0
37.09,200.0
37.1,216.0
37.11,228.0
37.12,214.0
37.13,230.0
37.14,220.0
37.15,211.0
37.16,219.0
37.17,209.0
37.18,195.0
37.19,223.0
37.2,187.0
37.21,230.0
37.22,218.0
37.23,199.0
37.24,219.0
37.25,192.0
37.26,207.0
37.27,237.0
37.28,229.0
37.29,226.0
37.3,215.0
37.31,210.0
37.32,203.0
37.33,236.0
37.34,207.0
37.35,210.0
37.36,223.0
37.37,197.0
37.38,181.0
37.39,200.0
37.4,215.0
37.41,196.0
37.42,222.0
37.43,208.0
37.44,206.0
37.45,228.0
37.46,218.0
37.47,217.0
37.48,185.0
37.49,219.0
37.5,195.0
37.51,194.0
37.52,233.0
37.53,203.0
37.54,214.0
37.55,210.0
37.56,215.0
37.57,230.0
37.58,177.0
37.59,201.0
37.6,223.0
37.61,227.0
37.62,200.0
37.63,217.0
37.64,214.0
37.65,236.0
37.66,213.0
37.67,192.0
37.68,240.0
37.69,205.0
37.7,223.0
37.71,202.0
37.72,225.0
37.73,220.0
37.74,210.0
37.75,215.0
37.76,209.0
37.77,211.0
37.78,217.0
37.79,197.0
37.8,224.0
37.81,217.0
37.82,196.0
37.83,174.0
37.84,226.0
37.85,215.0
37.86,213.0
37.87,232.0
37.88,253.0
37.89,214.0
37.9,213.0
37.91,211.0
37.92,210.0
37.93,230.0
37.94,216.0
37.95,217.0
37.96,219.0
37.97,206.0
37.98,211.0
37.99,215.0
38.0,196.0
38.01,209.0
38.02,190.0
38.03,210.0
38.04,242.0
38.05,191.0
38.06,239.0
38.07,189.0
38.08,209.0
38.09,194.0
38.1,200.0
38.11,201.0
38.12,212.0
38.13,214.0
38.14,199.0
38.15,203.0
38.16,217.0
38.17,238.0
38.18,221.0
38.19,225.0
38.2,209.0
38.21,197.0
38.22,204.0
38.23,233.0
38.24,212.0
38.25,201.0
38.26,197.0
38.27,235.0
38.28,238.0
38.29,213.0
38.3,190.0
38.31,233.0
38.32,242.0
38.33,214.0
38.34,186.0
38.35,200.0
38.36,204.0
38.37,200.0
38.38,223.0
38.39,218.0
38.4,209.0
38.41,198.0
38.42,193.0
38.43,187.0
38.44,236.0
38.45,212.0
38.46,208.0
38.47,227.0
38.48,203.0
38.49,196.0
38.5,185.0
38.51,203.0
38.52,210.0
38.53,226.0
38.54,202.0
38.55,221.0
38.56,218.0
38.57,200.0
38.58,211.0
38.59,188.0
38.6,216.0
38.61,221.0
38.62,220.0
38.63,232.0
38.64,226.0
38.65,216.0
38.66,229.0
38.67,233.0
38.68,218.0
38.69,208.0
38.7,224.0
38.71,214.0
38.72,227.0
38.73,201.0
38.74,207.0
38.75,236.0
38.76,209.0
38.77,210.0
38.78,211.0
38.79,204.0
38.8,216.0
38.81,225.0
38.82,213.0
38.83,220.0
38.84,207.0
38.85,196.0
38.86,229.0
38.87,233.0
38.88,211.0
38.89,227.0
38.9,201.0
38.91,225.0
38.92,209.0
38.93,203.0
38.94,178.0
38.95,193.0
38.96,217.0
38.97,209.0
38.98,221.0
38.99,196.0
39.0,211.0
39.01,231.0
39.02,195.0
39.03,213.0
39.04,225.0
39.05,228.0
39.06,230.0
39.07,215.0
39.08,218.0
39.09,228.0
39.1,201.0
39.11,204.0
39.12,218.0
39.13,222.0
39.14,202.0
39.15,228.0
39.16,232.0
39.17,213.0
39.18,221.0
39.19,229.0
39.2,199.0
39.21,221.0
39.22,224.0
39.23,203.0
39.24,200.0
39.25,222.0
39.26,224.0
39.27,217.0
39.28,222.0
39.29,216.0
39.3,225.0
39.31,218.0
39.32,241.0
39.33,190.0
39.34,258.0
39.35,237.0
39.36,218.0
39.37,224.0
39.38,203.0
39.39,218.0
39.4,211.0
39.41,209.0
39.42,193.0
39.43,212.0
39.44,212.0
39.45,220.0
39.46,233.0
39.47,207.0
39.48,221.0
39.49,230.0
39.5,223.0
39.51,227.0
39.52,241.0
39.53,234.0
39.54,199.0
39.55,234.0
39.56,216.0
39.57,205.0
39.58,191.0
39.59,205.0
39.6,200.0
39.61,239.0
39.62,241.0
39.63,232.0
39.64,222.0
39.65,223.0
39.66,195.0
39.67,209.0
39.68,231.0
39.69,233.0
39.7,218.0
39.71,234.0
39.72,196.0
39.73,227.0
39.74,216.0
39.75,236.0
39.76,206.0
39.77,220.0
39.78,204.0
39.79,223.0
39.8,203.0
39.81,206.0
39.82,212.0
39.83,226.0
39.84,200.0
39.85,227.0
39.86,209.0
39.87,209.0
39.88,204.0
39.89,227.0
39.9,221.0
39.91,216.0
39.92,193.0
39.93,204.0
39.94,201.0
39.95,212.0
39.96,215.0
39.97,214.0
39.98,212.0
39.99,219.0
40.0,225.0
40.01,210.0
40.02,192.0
40.03,216.0
40.04,207.0
40.05,227.0
40.06,214.0
40.07,221.0
40.08,213.0
40.09,234.0
40.1,226.0
40.11,236.0
40.12,217.0
40.13,210.0
40.14,204.0
40.15,221.0
40.16,220.0
40.17,231.0
40.18,211.0
40.19,214.0
40.2,188.0
40.21,217.0
40.22,216.0
40.23,216.0
40.24,217.0
40.25,213.0
40.26,232.0
40.27,211.0
40.28,212.0
40.29,185.0
40.3,185.0
40.31,213.0
40.32,222.0
40.33,235.0
40.34,258.0
40.35,225.0
40.36,229.0
40.37,221.0
40.38,210.0
40.39,219.0
40.4,195.0
40.41,218.0
40.42,167.0
40.43,211.0
40.44,243.0
40.45,201.0
40.46,252.0
40.47,236.0
40.48,238.0
40.49,226.0
40.5,202.0
40.51,224.0
40.52,228.0
40.53,179.0
40.54,216.0
40.55,221.0
40.56,213.0
40.57,214.0
40.58,213.0
40.59,227.0
40.6,219.0
40.61,206.0
40.62,228.0
40.63,202.0
40.64,218.0
40.65,235.0
40.66,203.0
40.67,222.0
40.68,229.0
40.69,194.0
40.7,212.0
40.71,226.0
40.72,217.0
40.73,225.0
40.74,254.0
40.75,223.0
40.76,211.0
40.77,252.0
40.78,243.0
40.79,201.0
40.8,246.0
40.81,260.0
40.82,233.0
40.83,231.0
40.84,238.0
40.85,249.0
40.86,228.0
40.87,235.0
40.88,230.0
40.89,233.0
40.9,253.0
40.91,303.0
40.92,259.0
40.93,255.0
40.94,248.0
40.95,265.0
40.96,240.0
40.97,243.0
40.98,266.0
40.99,249.0
41.0,266.0
41.01,260.0
41.02,247.0
41.03,250.0
41.04,256.0
41.05,247.0
41.06,249.0
41.07,250.0
41.08,233.0
41.09,246.0
41.1,246.0
41.11,200.0
41.12,234.0
41.13,229.0
41.14,236.0
41.15,212.0
41.16,212.0
41.17,231.0
41.18,219.0
41.19,226.0
41.2,208.0
41.21,226.0
41.22,203.0
41.23,204.0
41.24,225.0
41.25,204.0
41.26,223.0
41.27,250.0
41.28,203.0
41.29,249.0
41.3,236.0
41.31,219.0
41.32,203.0
41.33,219.0
41.34,207.0
41.35,203.0
41.36,233.0
41.37,222.0
41.38,238.0
41.39,193.0
41.4,229.0
41.41,213.0
41.42,242.0
41.43,228.0
41.44,206.0
41.45,190.0
41.46,202.0
41.47,213.0
41.48,200.0
41.49,242.0
41.5,235.0
41.51,213.0
41.52,219.0
41.53,214.0
41.54,221.0
41.55,228.0
41.56,196.0
41.57,183.0
41.58,227.0
41.59,209.0
41.6,188.0
41.61,223.0
41.62,230.0
41.63,211.0
41.64,225.0
41.65,208.0
41.66,222.0
41.67,207.0
41.68,224.0
41.69,236.0
41.7,194.0
41.71,217.0
41.72,217.0
41.73,221.0
41.74,226.0
41.75,197.0
41.76,232.0
41.77,230.0
41.78,218.0
41.79,205.0
41.8,214.0
41.81,208.0
41.82,202.0
41.83,187.0
41.84,212.0
41.85,203.0
41.86,179.0
41.87,204.0
41.88,234.0
41.89,215.0
41.9,194.0
41.91,227.0
41.92,203.0
41.93,203.0
41.94,207.0
41.95,210.0
41.96,204.0
41.97,216.0
41.98,208.0
41.99,195.0
42.0,239.0
42.01,237.0
42.02,221.0
42.03,217.0
42.04,243.0
42.05,221.0
42.06,235.0
42.07,194.0
42.08,224.0
42.09,209.0
42.1,179.0
42.11,187.0
42.12,230.0
42.13,243.0
42.14,228.0
42.15,191.0
42.16,222.0
42.17,207.0
42.18,193.0
42.19,222.0
42.2,218.0
42.21,207.0
42.22,208.0
42.23,225.0
42.24,215.0
42.25,197.0
42.26,196.0
42.27,196.0
42.28,194.0
42.29,224.0
42.3,214.0
42.31,228.0
42.32,229.0
42.33,218.0
42.34,197.0
42.35,223.0
42.36,225.0
42.37,199.0
42.38,239.0
42.39,226.0
42.4,187.0
42.41,228.0
42.42,191.0
42.43,238.0
42.44,204.0
42.45,213.0
42.46,235.0
42.47,239.0
42.48,213.0
42.49,211.0
42.5,215.0
42.51,200.0
42.52,208.0
42.53,220.0
42.54,230.0
42.55,217.0
42.56,216.0
42.57,216.0
42.58,213.0
42.59,215.0
42.6,240.0
42.61,233.0
42.62,219.0
42.63,219.0
42.64,234.0
42.65,245.0
42.66,201.0
42.67,242.0
42.68,237.0
42.69,211.0
42.7,222.0
42.71,201.0
42.72,220.0
42.73,202.0
42.74,251.0
42.75,217.0
42.76,217.0
42.77,217.0
42.78,218.0
42.79,247.0
42.8,209.0
42.81,202.0
42.82,220.0
42.83,210.0
42.84,220.0
42.85,221.0
42.86,228.0
42.87,191.0
42.88,202.0
42.89,229.0
42.9,228.0
42.91,213.0
42.92,210.0
42.93,217.0
42.94,215.0
42.95,238.0
42.96,233.0
42.97,218.0
42.98,219.0
42.99,217.0
43.0,220.0
43.01,208.0
43.02,208.0
43.03,218.0
43.04,186.0
43.05,227.0
43.06,222.0
43.07,223.0
43.08,202.0
43.09,210.0
43.1,239.0
43.11,218.0
43.12,230.0
43.13,211.0
43.14,197.0
43.15,239.0
43.16,220.0
43.17,213.0
43.18,225.0
43.19,235.0
43.2,234.0
43.21,218.0
43.22,210.0
43.23,217.0
43.24,246.0
43.25,180.0
43.26,195.0
43.27,247.0
43.28,221.0
43.29,213.0
43.3,226.0
43.31,211.0
43.32,197.0
43.33,195.0
43.34,201.0
43.35,238.0
43.36,196.0
43.37,198.0
43.38,243.0
43.39,224.0
43.4,230.0
43.41,246.0
43.42,218.0
43.43,230.0
43.44,236.0
43.45,207.0
43.46,208.0
43.47,202.0
43.48,218.0
43.49,215.0
43.5,225.0
43.51,237.0
43.52,242.0
43.53,244.0
43.54,215.0
43.55,210.0
43.56,229.0
43.57,209.0
43.58,229.0
43.59,223.0
43.6,218.0
43.61,233.0
43.62,236.0
43.63,199.0
43.64,210.0
43.65,228.0
43.66,228.0
43.67,226.0
43.68,201.0
43.69,206.0
43.7,204.0
43.71,232.0
43.72,227.0
43.73,230.0
43.74,220.0
43.75,226.0
43.76,213.0
43.77,243.0
43.78,225.0
43.79,209.0
43.8,205.0
43.81,218.0
43.82,207.0
43.83,220.0
43.84,224.0
43.85,193.0
43.86,234.0
43.87,234.0
43.88,232.0
43.89,232.0
43.9,196.0
43.91,230.0
43.92,208.0
43.93,240.0
43.94,217.0
43.95,213.0
43.96,204.0
43.97,210.0
43.98,223.0
43.99,208.0
44.0,236.0
44.01,225.0
44.02,247.0
44.03,221.0
44.04,246.0
44.05,231.0
44.06,204.0
44.07,210.0
44.08,217.0
44.09,218.0
44.1,237.0
44.11,233.0
44.12,238.0
44.13,214.0
44.14,221.0
44.15,229.0
44.16,223.0
44.17,213.0
44.18,223.0
44.19,210.0
44.2,207.0
44.21,234.0
44.22,186.0
44.23,220.0
44.24,201.0
44.25,244.0
44.26,227.0
44.27,211.0
44.28,214.0
44.29,223.0
44.3,208.0
44.31,219.0
44.32,262.0
44.33,201.0
44.34,218.0
44.35,236.0
44.36,248.0
44.37,224.0
44.38,218.0
44.39,228.0
44.4,250.0
44.41,211.0
44.42,214.0
44.43,214.0
44.44,206.0
44.45,233.0
44.46,223.0
44.47,194.0
44.48,217.0
44.49,224.0
44.5,212.0
44.51,195.0
44.52,222.0
44.53,199.0
44.54,252.0
44.55,223.0
44.56,209.0
44.57,234.0
44.58,251.0
44.59,241.0
44.6,214.0
44.61,213.0
44.62,232.0
44.63,196.0
44.64,216.0
44.65,210.0
44.66,221.0
44.67,215.0
44.68,226.0
44.69,215.0
44.7,226.0
44.71,208.0
44.72,225.0
44.73,215.0
44.74,232.0
44.75,225.0
44.76,226.0
44.77,223.0
44.78,221.0
44.79,221.0
44.8,228.0
44.81,210.0
44.82,233.0
44.83,207.0
44.84,220.0
44.85,206.0
44.86,199.0
44.87,228.0
44.88,215.0
44.89,208.0
44.9,234.0
44.91,235.0
44.92,245.0
44.93,235.0
44.94,201.0
44.95,226.0
44.96,219.0
44.97,221.0
44.98,221.0
44.99,232.0
45.0,195.0
45.01,218.0
45.02,249.0
45.03,220.0
45.04,257.0
45.05,210.0
45.06,193.0
45.07,228.0
45.08,211.0
45.09,232.0
45.1,226.0
45.11,222.0
45.12,206.0
45.13,197.0
45.14,233.0
45.15,224.0
45.16,228.0
45.17,214.0
45.18,216.0
45.19,242.0
45.2,247.0
45.21,227.0
45.22,223.0
45.23,227.0
45.24,226.0
45.25,225.0
45.26,215.0
45.27,220.0
45.28,195.0
45.29,245.0
45.3,240.0
45.31,209.0
45.32,187.0
45.33,230.0
45.34,244.0
45.35,217.0
45.36,232.0
45.37,218.0
45.38,212.0
45.39,219.0
45.4,216.0
45.41,204.0
45.42,216.0
45.43,212.0
45.44,234.0
45.45,222.0
45.46,217.0
45.47,201.0
45.48,228.0
45.49,240.0
45.5,209.0
45.51,207.0
45.52,230.0
45.53,237.0
45.54,211.0
45.55,217.0
45.56,215.0
45.57,246.0
45.58,217.0
45.59,216.0
45.6,212.0
45.61,212.0
45.62,248.0
45.63,233.0
45.64,235.0
45.65,238.0
45.66,208.0
45.67,204.0
45.68,254.0
45.69,216.0
45.7,237.0
45.71,213.0
45.72,202.0
45.73,213.0
45.74,230.0
45.75,218.0
45.76,252.0
45.77,214.0
45.78,240.0
45.79,191.0
45.8,205.0
45.81,263.0
45.82,231.0
45.83,226.0
45.84,205.0
45.85,218.0
45.86,226.0
45.87,226.0
45.88,229.0
45.89,221.0
45.9,224.0
45.91,210.0
45.92,230.0
45.93,206.0
45.94,214.0
45.95,238.0
45.96,208.0
45.97,200.0
45.98,244.0
45.99,223.0
46.0,229.0
46.01,243.0
46.02,253.0
46.03,216.0
46.04,223.0
46.05,223.0
46.06,224.0
46.07,209.0
46.08,232.0
46.09,231.0
46.1,213.0
46.11,226.0
46.12,246.0
46.13,203.0
46.14,225.0
46.15,224.0
46.16,246.0
46.17,223.0
46.18,209.0
46.19,209.0
46.2,229.0
46.21,203.0
46.22,219.0
46.23,194.0
46.24,211.0
46.25,179.0
46.26,220.0
46.27,243.0
46.28,217.0
46.29,220.0
46.3,221.0
46.31,201.0
46.32,217.0
46.33,241.0
46.34,212.0
46.35,247.0
46.36,200.0
46.37,230.0
46.38,216.0
46.39,220.0
46.4,253.0
46.41,228.0
46.42,220.0
46.43,238.0
46.44,205.0
46.45,222.0
46.46,233.0
46.47,215.0
46.48,220.0
46.49,224.0
46.5,233.0
46.51,226.0
46.52,189.0
46.53,224.0
46.54,219.0
46.55,226.0
46.56,221.0
46.57,212.0
46.58,206.0
46.59,225.0
46.6,245.0
46.61,246.0
46.62,189.0
46.63,213.0
46.64,222.0
46.65,231.0
46.66,209.0
46.67,226.0
46.68,224.0
46.69,215.0
46.7,216.0
46.71,223.0
46.72,229.0
46.73,240.0
46.74,207.0
46.75,238.0
46.76,217.0
46.77,215.0
46.78,240.0
46.79,210.0
46.8,201.0
46.81,215.0
46.82,218.0
46.83,240.0
46.84,239.0
46.85,242.0
46.86,208.0
46.87,210.0
46.88,215.0
46.89,217.0
46.9,237.0
46.91,216.0
46.92,221.0
46.93,222.0
46.94,227.0
46.95,214.0
46.96,200.0
46.97,224.0
46.98,208.0
46.99,232.0
47.0,210.0
47.01,243.0
47.02,217.0
47.03,203.0
47.04,207.0
47.05,225.0
47.06,249.0
47.07,216.0
47.08,210.0
47.09,214.0
47.1,225.0
47.11,227.0
47.12,225.0
47.13,222.0
47.14,224.0
47.15,206.0
47.16,221.0
47.17,201.0
47.18,216.0
47.19,211.0
47.2,222.0
47.21,221.0
47.22,207.0
47.23,223.0
47.24,228.0
47.25,231.0
47.26,239.0
47.27,222.0
47.28,226.0
47.29,234.0
47.3,198.0
47.31,211.0
47.32,205.0
47.33,219.0
47.34,209.0
47.35,193.0
47.36,231.0
47.37,179.0
47.38,222.0
47.39,231.0
47.4,226.0
47.41,204.0
47.42,229.0
47.43,210.0
47.44,219.0
47.45,212.0
47.46,225.0
47.47,212.0
47.48,217.0
47.49,244.0
47.5,231.0
47.51,221.0
47.52,222.0
47.53,218.0
47.54,218.0
47.55,236.0
47.56,220.0
47.57,256.0
47.58,225.0
47.59,222.0
47.6,229.0
47.61,195.0
47.62,213.0
47.63,211.0
47.64,205.0
47.65,214.0
47.66,201.0
47.67,210.0
47.68,224.0
47.69,212.0
47.7,216.0
47.71,214.0
47.72,235.0
47.73,217.0
47.74,227.0
47.75,221.0
47.76,245.0
47.77,218.0
47.78,227.0
47.79,227.0
47.8,221.0
47.81,230.0
47.82,211.0
47.83,212.0
47.84,217.0
47.85,241.0
47.86,235.0
47.87,226.0
47.88,227.0
47.89,212.0
47.9,227.0
47.91,221.0
47.92,238.0
47.93,245.0
47.94,200.0
47.95,216.0
47.96,218.0
47.97,211.0
47.98,218.0
47.99,215.0
48.0,226.0
48.01,206.0
48.02,203.0
48.03,198.0
48.04,228.0
48.05,205.0
48.06,208.0
48.07,199.0
48.08,203.0
48.09,202.0
48.1,247.0
48.11,226.0
48.12,221.0
48.13,205.0
48.14,213.0
48.15,218.0
48.16,241.0
48.17,224.0
48.18,228.0
48.19,209.0
48.2,229.0
48.21,199.0
48.22,221.0
48.23,223.0
48.24,218.0
48.25,224.0
48.26,227.0
48.27,222.0
48.28,215.0
48.29,230.0
48.3,202.0
48.31,208.0
48.32,243.0
48.33,244.0
48.34,218.0
48.35,244.0
48.36,223.0
48.37,265.0
48.38,230.0
48.39,236.0
48.4,199.0
48.41,220.0
48.42,214.0
48.43,229.0
48.44,227.0
48.45,240.0
48.46,225.0
48.47,209.0
48.48,233.0
48.49,216.0
48.5,250.0
48.51,208.0
48.52,208.0
48.53,227.0
48.54,223.0
48.55,208.0
48.56,223.0
48.57,236.0
48.58,223.0
48.59,201.0
48.6,218.0
48.61,209.0
48.62,219.0
48.63,196.0
48.64,201.0
48.65,219.0
48.66,237.0
48.67,233.0
48.68,237.0
48.69,202.0
48.7,202.0
48.71,225.0
48.72,241.0
48.73,205.0
48.74,232.0
48.75,239.0
48.76,221.0
48.77,216.0
48.78,226.0
48.79,223.0
48.8,235.0
48.81,208.0
48.82,235.0
48.83,231.0
48.84,228.0
48.85,219.0
48.86,219.0
48.87,230.0
48.88,215.0
48.89,234.0
48.9,226.0
48.91,228.0
48.92,207.0
48.93,233.0
48.94,214.0
48.95,231.0
48.96,236.0
48.97,221.0
48.98,221.0
48.99,218.0
49.0,222.0
49.01,205.0
49.02,224.0
49.03,226.0
49.04,225.0
49.05,233.0
49.06,235.0
49.07,209.0
49.08,237.0
49.09,231.0
49.1,204.0
49.11,210.0
49.12,235.0
49.13,220.0
49.14,213.0
49.15,225.0
49.16,239.0
49.17,245.0
49.18,224.0
49.19,246.0
49.2,196.0
49.21,235.0
49.22,235.0
49.23,199.0
49.24,241.0
49.25,218.0
49.26,203.0
49.27,222.0
49.28,247.0
49.29,261.0
49.3,220.0
49.31,240.0
49.32,228.0
49.33,230.0
49.34,260.0
49.35,246.0
49.36,234.0
49.37,247.0
49.38,256.0
49.39,236.0
49.4,239.0
49.41,239.0
49.42,260.0
49.43,253.0
49.44,241.0
49.45,255.0
49.46,262.0
49.47,286.0
49.48,316.0
49.49,261.0
49.5,252.0
49.51,255.0
49.52,273.0
49.53,248.0
49.54,270.0
49.55,248.0
49.56,232.0
49.57,283.0
49.58,262.0
49.59,273.0
49.6,259.0
49.61,236.0
49.62,276.0
49.63,277.0
49.64,252.0
49.65,258.0
49.66,258.0
49.67,253.0
49.68,260.0
49.69,271.0
49.7,247.0
49.71,269.0
49.72,247.0
49.73,257.0
49.74,256.0
49.75,234.0
49.76,254.0
49.77,244.0
49.78,240.0
49.79,251.0
49.8,207.0
49.81,250.0
49.82,248.0
49.83,240.0
49.84,243.0
49.85,238.0
49.86,221.0
49.87,257.0
49.88,222.0
49.89,241.0
49.9,231.0
49.91,234.0
49.92,233.0
49.93,235.0
49.94,211.0
49.95,236.0
49.96,227.0
49.97,208.0
49.98,250.0
49.99,238.0
50.0,209.0
50.01,250.0
50.02,214.0
50.03,247.0
50.04,222.0
50.05,231.0
50.06,206.0
50.07,215.0
50.08,221.0
50.09,213.0
50.1,241.0
50.11,217.0
50.12,226.0
50.13,191.0
50.14,208.0
50.15,253.0
50.16,236.0
50.17,195.0
50.18,235.0
50.19,211.0
50.2,215.0
50.21,226.0
50.22,255.0
50.23,217.0
50.24,222.0
50.25,218.0
50.26,219.0
50.27,233.0
50.28,220.0
50.29,205.0
50.3,244.0
50.31,214.0
50.32,221.0
50.33,242.0
50.34,206.0
50.35,253.0
50.36,219.0
50.37,228.0
50.38,235.0
50.39,215.0
50.4,233.0
50.41,225.0
50.42,220.0
50.43,256.0
50.44,212.0
50.45,205.0
50.46,227.0
50.47,211.0
50.48,226.0
50.49,226.0
50.5,213.0
50.51,208.0
50.52,248.0
50.53,216.0
50.54,222.0
50.55,221.0
50.56,227.0
50.57,227.0
50.58,222.0
50.59,224.0
50.6,234.0
50.61,196.0
50.62,237.0
50.63,200.0
50.64,236.0
50.65,231.0
50.66,216.0
50.67,218.0
50.68,217.0
50.69,218.0
50.7,202.0
50.71,208.0
50.72,233.0
50.73,251.0
50.74,243.0
50.75,226.0
50.76,213.0
50.77,225.0
50.78,256.0
50.79,237.0
50.8,232.0
50.81,202.0
50.82,214.0
50.83,220.0
50.84,229.0
50.85,222.0
50.86,217.0
50.87,222.0
50.88,205.0
50.89,222.0
50.9,212.0
50.91,222.0
50.92,225.0
50.93,239.0
50.94,198.0
50.95,225.0
50.96,228.0
50.97,221.0
50.98,269.0
50.99,238.0
51.0,237.0
51.01,217.0
51.02,239.0
51.03,228.0
51.04,232.0
51.05,204.0
51.06,222.0
51.07,222.0
51.08,185.0
51.09,220.0
51.1,220.0
51.11,213.0
51.12,220.0
51.13,213.0
51.14,206.0
51.15,210.0
51.16,221.0
51.17,209.0
51.18,215.0
51.19,209.0
51.2,199.0
51.21,208.0
51.22,219.0
51.23,219.0
51.24,213.0
51.25,236.0
51.26,234.0
51.27,233.0
51.28,221.0
51.29,226.0
51.3,211.0
51.31,205.0
51.32,192.0
51.33,201.0
51.34,213.0
51.35,232.0
51.36,235.0
51.37,224.0
51.38,225.0
51.39,222.0
51.4,216.0
51.41,218.0
51.42,216.0
51.43,233.0
51.44,256.0
51.45,213.0
51.46,213.0
51.47,200.0
51.48,225.0
51.49,204.0
51.5,215.0
51.51,229.0
51.52,186.0
51.53,231.0
51.54,210.0
51.55,221.0
51.56,226.0
51.57,211.0
51.58,218.0
51.59,206.0
51.6,238.0
51.61,220.0
51.62,209.0
51.63,203.0
51.64,218.0
51.65,241.0
51.66,207.0
51.67,236.0
51.68,226.0
51.69,201.0
51.7,239.0
51.71,212.0
51.72,242.0
51.73,206.0
51.74,212.0
51.75,213.0
51.76,231.0
51.77,219.0
51.78,209.0
51.79,206.0
51.8,197.0
51.81,240.0
51.82,198.0
51.83,236.0
51.84,208.0
51.85,247.0
51.86,243.0
51.87,227.0
51.88,207.0
51.89,230.0
51.9,199.0
51.91,242.0
51.92,209.0
51.93,216.0
51.94,233.0
51.95,216.0
51.96,243.0
51.97,234.0
51.98,209.0
51.99,219.0
52.0,219.0
52.01,219.0
52.02,216.0
52.03,227.0
52.04,242.0
52.05,229.0
52.06,220.0
52.07,194.0
52.08,216.0
52.09,220.0
52.1,228.0
52.11,212.0
52.12,237.0
52.13,238.0
52.14,221.0
52.15,220.0
52.16,243.0
52.17,214.0
52.18,207.0
52.19,220.0
52.2,207.0
52.21,252.0
52.22,223.0
52.23,227.0
52.24,231.0
52.25,229.0
52.26,209.0
52.27,212.0
52.28,214.0
52.29,222.0
52.3,233.0
52.31,231.0
52.32,225.0
52.33,238.0
52.34,189.0
52.35,227.0
52.36,251.0
52.37,210.0
52.38,209.0
52.39,248.0
52.4,217.0
52.41,232.0
52.42,223.0
52.43,216.0
52.44,236.0
52.45,210.0
52.46,235.0
52.47,241.0
52.48,199.0
52.49,224.0
52.5,208.0
52.51,200.0
52.52,204.0
52.53,246.0
52.54,254.0
52.55,237.0
52.56,211.0
52.57,218.0
52.58,223.0
52.59,193.0
52.6,242.0
52.61,264.0
52.62,209.0
52.63,218.0
52.64,238.0
52.65,207.0
52.66,200.0
52.67,207.0
52.68,218.0
52.69,206.0
52.7,228.0
52.71,217.0
52.72,213.0
52.73,232.0
52.74,234.0
52.75,224.0
52.76,208.0
52.77,222.0
52.78,243.0
52.79,228.0
52.8,216.0
52.81,242.0
52.82,219.0
52.83,230.0
52.84,206.0
52.85,235.0
52.86,216.0
52.87,219.0
52.88,221.0
52.89,203.0
52.9,180.0
52.91,211.0
52.92,238.0
52.93,217.0
52.94,210.0
52.95,217.0
52.96,231.0
52.97,228.0
52.98,243.0
52.99,212.0
53.0,236.0
53.01,205.0
53.02,241.0
53.03,230.0
53.04,229.0
53.05,229.0
53.06,217.0
53.07,243.0
53.08,253.0
53.09,210.0
53.1,202.0
53.11,229.0
53.12,239.0
53.13,231.0
53.14,220.0
53.15,213.0
53.16,222.0
53.17,224.0
53.18,207.0
53.19,218.0
53.2,255.0
53.21,225.0
53.22,203.0
53.23,235.0
53.24,219.0
53.25,233.0
53.26,211.0
53.27,211.0
53.28,226.0
53.29,232.0
53.3,193.0
53.31,221.0
53.32,230.0
53.33,210.0
53.34,222.0
53.35,232.0
53.36,213.0
53.37,222.0
53.38,203.0
53.39,233.0
53.4,227.0
53.41,216.0
53.42,228.0
53.43,243.0
53.44,203.0
53.45,230.0
53.46,236.0
53.47,253.0
53.48,221.0
53.49,243.0
53.5,238.0
53.51,230.0
53.52,225.0
53.53,208.0
53.54,214.0
53.55,216.0
53.56,233.0
53.57,199.0
53.58,246.0
53.59,231.0
53.6,243.0
53.61,240.0
53.62,238.0
53.63,215.0
53.64,218.0
53.65,217.0
53.66,224.0
53.67,240.0
53.68,214.0
53.69,250.0
53.7,208.0
53.71,219.0
53.72,246.0
53.73,234.0
53.74,242.0
53.75,223.0
53.76,221.0
53.77,199.0
53.78,224.0
53.79,236.0
53.8,226.0
53.81,246.0
53.82,224.0
53.83,253.0
53.84,229.0
53.85,231.0
53.86,249.0
53.87,233.0
53.88,225.0
53.89,236.0
53.9,251.0
53.91,262.0
53.92,231.0
53.93,236.0
53.94,235.0
53.95,224.0
53.96,240.0
53.97,221.0
53.98,242.0
53.99,249.0
54.0,274.0
54.01,247.0
54.02,267.0
54.03,270.0
54.04,262.0
54.05,247.0
54.06,261.0
54.07,288.0
54.08,301.0
54.09,286.0
54.1,297.0
54.11,294.0
54.12,301.0
54.13,293.0
54.14,271.0
54.15,266.0
54.16,288.0
54.17,296.0
54.18,277.0
54.19,284.0
54.2,277.0
54.21,278.0
54.22,275.0
54.23,274.0
54.24,268.0
54.25,273.0
54.26,261.0
54.27,256.0
54.28,261.0
54.29,271.0
54.3,253.0
54.31,234.0
54.32,245.0
54.33,263.0
54.34,248.0
54.35,220.0
54.36,239.0
54.37,246.0
54.38,246.0
54.39,236.0
54.4,237.0
54.41,239.0
54.42,219.0
54.43,268.0
54.44,207.0
54.45,230.0
54.46,222.0
54.47,210.0
54.48,213.0
54.49,219.0
54.5,243.0
54.51,261.0
54.52,236.0
54.53,213.0
54.54,209.0
54.55,244.0
54.56,200.0
54.57,246.0
54.58,236.0
54.59,207.0
54.6,206.0
54.61,237.0
54.62,224.0
54.63,255.0
54.64,207.0
54.65,235.0
54.66,237.0
54.67,228.0
54.68,203.0
54.69,208.0
54.7,205.0
54.71,216.0
54.72,234.0
54.73,208.0
54.74,229.0
54.75,236.0
54.76,214.0
54.77,230.0
54.78,253.0
54.79,217.0
54.8,244.0
54.81,220.0
54.82,218.0
54.83,238.0
54.84,240.0
54.85,228.0
54.86,226.0
54.87,242.0
54.88,249.0
54.89,239.0
54.9,207.0
54.91,235.0
54.92,216.0
54.93,212.0
54.94,236.0
54.95,253.0
54.96,228.0
54.97,204.0
54.98,202.0
54.99,220.0
55.0,228.0
55.01,242.0
55.02,227.0
55.03,246.0
55.04,211.0
55.05,234.0
55.06,227.0
55.07,245.0
55.08,229.0
55.09,233.0
55.1,247.0
55.11,234.0
55.12,219.0
55.13,227.0
55.14,227.0
55.15,232.0
55.16,241.0
55.17,212.0
55.18,232.0
55.19,225.0
55.2,241.0
55.21,240.0
55.22,244.0
55.23,232.0
55.24,223.0
55.25,247.0
55.26,219.0
55.27,221.0
55.28,221.0
55.29,243.0
55.3,228.0
55.31,228.0
55.32,208.0
55.33,229.0
55.34,232.0
55.35,215.0
55.36,249.0
55.37,250.0
55.38,218.0
55.39,228.0
55.4,186.0
55.41,202.0
55.42,229.0
55.43,228.0
55.44,217.0
55.45,193.0
55.46,253.0
55.47,232.0
55.48,230.0
55.49,210.0
55.5,221.0
55.51,209.0
55.52,237.0
55.53,195.0
55.54,218.0
55.55,220.0
55.56,201.0
55.57,219.0
55.58,220.0
55.59,226.0
55.6,209.0
55.61,223.0
55.62,222.0
55.63,224.0
55.64,239.0
55.65,218.0
55.66,214.0
55.67,240.0
55.68,246.0
55.69,218.0
55.7,219.0
55.71,234.0
55.72,215.0
55.73,208.0
55.74,228.0
55.75,217.0
55.76,224.0
55.77,208.0
55.78,212.0
55.79,238.0
55.8,198.0
55.81,219.0
55.82,211.0
55.83,230.0
55.84,241.0
55.85,220.0
55.86,236.0
55.87,236.0
55.88,212.0
55.89,223.0
55.9,193.0
55.91,242.0
55.92,228.0
55.93,192.0
55.94,225.0
55.95,204.0
55.96,226.0
55.97,227.0
55.98,210.0
55.99,248.0
56.0,247.0
56.01,230.0
56.02,240.0
56.03,215.0
56.04,223.0
56.05,234.0
56.06,241.0
56.07,235.0
56.08,203.0
56.09,243.0
56.1,257.0
56.11,246.0
56.12,262.0
56.13,241.0
56.14,231.0
56.15,228.0
56.16,213.0
56.17,204.0
56.18,220.0
56.19,198.0
56.2,243.0
56.21,221.0
56.22,218.0
56.23,221.0
56.24,190.0
56.25,217.0
56.26,249.0
56.27,211.0
56.28,207.0
56.29,235.0
56.3,220.0
56.31,223.0
56.32,221.0
56.33,206.0
56.34,197.0
56.35,220.0
56.36,228.0
56.37,247.0
56.38,195.0
56.39,234.0
56.4,190.0
56.41,249.0
56.42,201.0
56.43,233.0
56.44,225.0
56.45,222.0
56.46,220.0
56.47,201.0
56.48,181.0
56.49,232.0
56.5,202.0
56.51,243.0
56.52,207.0
56.53,257.0
56.54,221.0
56.55,218.0
56.56,232.0
56.57,219.0
56.58,207.0
56.59,227.0
56.6,212.0
56.61,217.0
56.62,218.0
56.63,221.0
56.64,237.0
56.65,226.0
56.66,247.0
56.67,233.0
56.68,238.0
56.69,240.0
56.7,233.0
56.71,204.0
56.72,225.0
56.73,216.0
56.74,214.0
56.75,203.0
56.76,246.0
56.77,213.0
56.78,214.0
56.79,213.0
56.8,234.0
56.81,239.0
56.82,212.0
56.83,241.0
56.84,201.0
56.85,234.0
56.86,234.0
56.87,246.0
56.88,260.0
56.89,213.0
56.9,208.0
56.91,216.0
56.92,220.0
56.93,230.0
56.94,196.0
56.95,194.0
56.96,220.0
56.97,224.0
56.98,224.0
56.99,236.0
57.0,245.0
57.01,215.0
57.02,212.0
57.03,219.0
57.04,220.0
57.05,235.0
57.06,185.0
57.07,195.0
57.08,212.0
57.09,226.0
57.1,205.0
57.11,234.0
57.12,190.0
57.13,220.0
57.14,218.0
57.15,222.0
57.16,185.0
57.17,205.0
57.18,220.0
57.19,213.0
57.2,222.0
57.21,200.0
57.22,255.0
57.23,225.0
57.24,235.0
57.25,223.0
57.26,241.0
57.27,204.0
57.28,208.0
57.29,228.0
57.3,212.0
57.31,231.0
57.32,229.0
57.33,229.0
57.34,233.0
57.35,231.0
57.36,192.0
57.37,242.0
57.38,233.0
57.39,240.0
57.4,215.0
57.41,244.0
57.42,218.0
57.43,231.0
57.44,263.0
57.45,243.0
57.46,222.0
57.47,236.0
57.48,210.0
57.49,225.0
57.5,243.0
57.51,241.0
57.52,233.0
57.53,236.0
57.54,217.0
57.55,205.0
57.56,232.0
57.57,243.0
57.58,245.0
57.59,248.0
57.6,229.0
57.61,210.0
57.62,246.0
57.63,232.0
57.64,258.0
57.65,227.0
57.66,245.0
57.67,228.0
57.68,245.0
57.69,197.0
57.7,248.0
57.71,228.0
57.72,206.0
57.73,231.0
57.74,231.0
57.75,247.0
57.76,256.0
57.77,230.0
57.78,240.0
57.79,246.0
57.8,257.0
57.81,246.0
57.82,257.0
57.83,203.0
57.84,197.0
57.85,241.0
57.86,202.0
57.87,232.0
57.88,214.0
57.89,221.0
57.9,241.0
57.91,209.0
57.92,207.0
57.93,223.0
57.94,217.0
57.95,197.0
57.96,224.0
57.97,217.0
57.98,218.0
57.99,219.0
58.0,206.0
58.01,227.0
58.02,241.0
58.03,216.0
58.04,232.0
58.05,222.0
58.06,227.0
58.07,210.0
58.08,224.0
58.09,211.0
58.1,228.0
58.11,234.0
58.12,247.0
58.13,212.0
58.14,198.0
58.15,217.0
58.16,202.0
58.17,223.0
58.18,238.0
58.19,228.0
58.2,228.0
58.21,224.0
58.22,221.0
58.23,203.0
58.24,222.0
58.25,236.0
58.26,202.0
58.27,207.0
58.28,188.0
58.29,204.0
58.3,215.0
58.31,222.0
58.32,214.0
58.33,205.0
58.34,203.0
58.35,196.0
58.36,207.0
58.37,214.0
58.38,220.0
58.39,232.0
58.4,220.0
58.41,196.0
58.42,193.0
58.43,247.0
58.44,238.0
58.45,242.0
58.46,211.0
58.47,244.0
58.48,216.0
58.49,230.0
58.5,221.0
58.51,241.0
58.52,205.0
58.53,219.0
58.54,222.0
58.55,213.0
58.56,213.0
58.57,195.0
58.58,231.0
58.59,255.0
58.6,226.0
58.61,224.0
58.62,203.0
58.63,216.0
58.64,232.0
58.65,238.0
58.66,224.0
58.67,238.0
58.68,216.0
58.69,231.0
58.7,221.0
58.71,234.0
58.72,205.0
58.73,223.0
58.74,230.0
58.75,223.0
58.76,223.0
58.77,227.0
58.78,233.0
58.79,219.0
58.8,218.0
58.81,221.0
58.82,209.0
58.83,212.0
58.84,208.0
58.85,232.0
58.86,230.0
58.87,231.0
58.88,216.0
58.89,243.0
58.9,230.0
58.91,230.0
58.92,222.0
58.93,209.0
58.94,217.0
58.95,214.0
58.96,215.0
58.97,210.0
58.98,216.0
58.99,220.0
59.0,236.0
59.01,209.0
59.02,202.0
59.03,218.0
59.04,226.0
59.05,217.0
59.06,227.0
59.07,223.0
59.08,221.0
59.09,224.0
59.1,236.0
59.11,230.0
59.12,239.0
59.13,213.0
59.14,222.0
59.15,228.0
59.16,229.0
59.17,209.0
59.18,207.0
59.19,242.0
59.2,197.0
59.21,186.0
59.22,216.0
59.23,246.0
59.24,244.0
59.25,246.0
59.26,213.0
59.27,254.0
59.28,217.0
59.29,224.0
59.3,242.0
59.31,228.0
59.32,227.0
59.33,225.0
59.34,227.0
59.35,229.0
59.36,232.0
59.37,232.0
59.38,242.0
59.39,199.0
59.4,213.0
59.41,203.0
59.42,229.0
59.43,229.0
59.44,214.0
59.45,228.0
59.46,207.0
59.47,223.0
59.48,246.0
59.49,201.0
59.5,230.0
59.51,248.0
59.52,203.0
59.53,231.0
59.54,186.0
59.55,216.0
59.56,236.0
59.57,236.0
59.58,213.0
59.59,216.0
59.6,233.0
59.61,195.0
59.62,215.0
59.63,248.0
59.64,228.0
59.65,223.0
59.66,259.0
59.67,248.0
59.68,219.0
59.69,218.0
59.7,230.0
59.71,229.0
59.72,236.0
59.73,213.0
59.74,223.0
59.75,203.0
59.76,234.0
59.77,199.0
59.78,222.0
59.79,212.0
59.8,219.0
59.81,225.0
59.82,229.0
59.83,215.0
59.84,209.0
59.85,207.0
59.86,233.0
59.87,247.0
59.88,220.0
59.89,242.0
59.9,224.0
59.91,217.0
59.92,190.0
59.93,202.0
59.94,223.0
59.95,203.0
59.96,242.0
59.97,249.0
59.98,223.0
59.99,213.0
60.0,202.0
60.01,225.0
60.02,207.0
60.03,211.0
60.04,219.0
60.05,249.0
60.06,234.0
60.07,229.0
60.08,244.0
60.09,233.0
60.1,230.0
60.11,229.0
60.12,201.0
60.13,200.0
60.14,225.0
60.15,196.0
60.16,224.0
60.17,207.0
60.18,217.0
60.19,234.0
60.2,230.0
60.21,229.0
60.22,232.0
60.23,203.0
60.24,195.0
60.25,215.0
60.26,207.0
60.27,196.0
60.28,229.0
60.29,226.0
60.3,206.0
60.31,199.0
60.32,234.0
60.33,188.0
60.34,243.0
60.35,226.0
60.36,230.0
60.37,213.0
60.38,217.0
60.39,231.0
60.4,196.0
60.41,210.0
60.42,203.0
60.43,242.0
60.44,233.0
60.45,239.0
60.46,231.0
60.47,210.0
60.48,232.0
60.49,249.0
60.5,231.0
60.51,221.0
60.52,231.0
60.53,249.0
60.54,189.0
60.55,214.0
60.56,217.0
60.57,232.0
60.58,212.0
60.59,225.0
60.6,226.0
60.61,241.0
60.62,221.0
60.63,228.0
60.64,196.0
60.65,215.0
60.66,204.0
60.67,213.0
60.68,241.0
60.69,244.0
60.7,216.0
60.71,226.0
60.72,200.0
60.73,244.0
60.74,194.0
60.75,238.0
60.76,234.0
60.77,240.0
60.78,201.0
60.79,214.0
60.8,211.0
60.81,222.0
60.82,206.0
60.83,248.0
60.84,243.0
60.85,210.0
60.86,210.0
60.87,243.0
60.88,233.0
60.89,226.0
60.9,211.0
60.91,249.0
60.92,235.0
60.93,224.0
60.94,204.0
60.95,231.0
60.96,223.0
60.97,221.0
60.98,230.0
60.99,196.0
61.0,211.0
61.01,255.0
61.02,207.0
61.03,216.0
61.04,182.0
61.05,238.0
61.06,209.0
61.07,228.0
61.08,206.0
61.09,227.0
61.1,230.0
61.11,224.0
61.12,228.0
61.13,209.0
61.14,245.0
61.15,223.0
61.16,188.0
61.17,224.0
61.18,204.0
61.19,216.0
61.2,205.0
61.21,224.0
61.22,212.0
61.23,189.0
61.24,221.0
61.25,214.0
61.26,216.0
61.27,224.0
61.28,252.0
61.29,204.0
61.3,203.0
61.31,214.0
61.32,227.0
61.33,209.0
61.34,225.0
61.35,229.0
61.36,214.0
61.37,236.0
61.38,221.0
61.39,187.0
61.4,244.0
61.41,215.0
61.42,243.0
61.43,231.0
61.44,214.0
61.45,230.0
61.46,226.0
61.47,210.0
61.48,218.0
61.49,223.0
61.5,201.0
61.51,240.0
61.52,213.0
61.53,225.0
61.54,222.0
61.55,222.0
61.56,210.0
61.57,205.0
61.58,218.0
61.59,227.0
61.6,228.0
61.61,238.0
61.62,212.0
61.63,228.0
61.64,222.0
61.65,195.0
61.66,213.0
61.67,219.0
61.68,209.0
61.69,223.0
61.7,226.0
61.71,185.0
61.72,253.0
61.73,219.0
61.74,231.0
61.75,221.0
61.76,233.0
61.77,222.0
61.78,242.0
61.79,240.0
61.8,231.0
61.81,221.0
61.82,185.0
61.83,214.0
61.84,218.0
61.85,231.0
61.86,228.0
61.87,232.0
61.88,249.0
61.89,208.0
61.9,215.0
61.91,259.0
61.92,233.0
61.93,201.0
61.94,195.0
61.95,240.0
61.96,219.0
61.97,206.0
61.98,221.0
61.99,214.0
62.0,221.0
62.01,222.0
62.02,204.0
62.03,257.0
62.04,226.0
62.05,191.0
62.06,240.0
62.07,236.0
62.08,235.0
62.09,224.0
62.1,218.0
62.11,246.0
62.12,218.0
62.13,245.0
62.14,216.0
62.15,255.0
62.16,239.0
62.17,234.0
62.18,221.0
62.19,235.0
62.2,195.0
62.21,236.0
62.22,205.0
62.23,221.0
62.24,220.0
62.25,216.0
62.26,219.0
62.27,251.0
62.28,246.0
62.29,230.0
62.3,256.0
62.31,246.0
62.32,236.0
62.33,225.0
62.34,237.0
62.35,257.0
62.36,249.0
62.37,247.0
62.38,252.0
62.39,236.0
62.4,268.0
62.41,270.0
62.42,275.0
62.43,271.0
62.44,231.0
62.45,255.0
62.46,249.0
62.47,290.0
62.48,270.0
62.49,295.0
62.5,277.0
62.51,256.0
62.52,270.0
62.53,278.0
62.54,250.0
62.55,262.0
62.56,240.0
62.57,229.0
62.58,235.0
62.59,270.0
62.6,294.0
62.61,248.0
62.62,224.0
62.63,278.0
62.64,215.0
62.65,232.0
62.66,236.0
62.67,246.0
62.68,252.0
62.69,235.0
62.7,243.0
62.71,228.0
62.72,251.0
62.73,236.0
62.74,235.0
62.75,244.0
62.76,226.0
62.77,236.0
62.78,250.0
62.79,221.0
62.8,223.0
62.81,223.0
62.82,218.0
62.83,200.0
62.84,244.0
62.85,224.0
62.86,238.0
62.87,231.0
62.88,211.0
62.89,242.0
62.9,252.0
62.91,204.0
62.92,242.0
62.93,211.0
62.94,239.0
62.95,219.0
62.96,237.0
62.97,232.0
62.98,218.0
62.99,231.0
63.0,243.0
63.01,220.0
63.02,234.0
63.03,240.0
63.04,225.0
63.05,229.0
63.06,229.0
63.07,238.0
63.08,224.0
63.09,219.0
63.1,220.0
63.11,200.0
63.12,236.0
63.13,241.0
63.14,205.0
63.15,212.0
63.16,212.0
63.17,216.0
63.18,246.0
63.19,244.0
63.2,226.0
63.21,206.0
63.22,213.0
63.23,223.0
63.24,227.0
63.25,225.0
63.26,225.0
63.27,239.0
63.28,236.0
63.29,238.0
63.3,210.0
63.31,240.0
63.32,241.0
63.33,196.0
63.34,212.0
63.35,207.0
63.36,234.0
63.37,258.0
63.38,231.0
63.39,249.0
63.4,213.0
63.41,225.0
63.42,236.0
63.43,252.0
63.44,224.0
63.45,241.0
63.46,225.0
63.47,208.0
63.48,231.0
63.49,227.0
63.5,207.0
63.51,229.0
63.52,193.0
63.53,236.0
63.54,213.0
63.55,219.0
63.56,220.0
63.57,228.0
63.58,227.0
63.59,234.0
63.6,245.0
63.61,214.0
63.62,247.0
63.63,236.0
63.64,202.0
63.65,219.0
63.66,248.0
63.67,236.0
63.68,248.0
63.69,241.0
63.7,221.0
63.71,250.0
63.72,233.0
63.73,211.0
63.74,193.0
63.75,229.0
63.76,248.0
63.77,251.0
63.78,217.0
63.79,240.0
63.8,273.0
63.81,243.0
63.82,243.0
63.83,244.0
63.84,217.0
63.85,239.0
63.86,237.0
63.87,225.0
63.88,242.0
63.89,238.0
63.9,227.0
63.91,217.0
63.92,265.0
63.93,216.0
63.94,268.0
63.95,249.0
63.96,243.0
63.97,277.0
63.98,270.0
63.99,232.0
64.0,244.0
64.01,263.0
64.02,252.0
64.03,263.0
64.04,271.0
64.05,256.0
64.06,238.0
64.07,262.0
64.08,254.0
64.09,262.0
64.1,251.0
64.11,258.0
64.12,264.0
64.13,256.0
64.14,256.0
64.15,257.0
64.16,241.0
64.17,276.0
64.18,233.0
64.19,260.0
64.2,262.0
64.21,256.0
64.22,260.0
64.23,255.0
64.24,268.0
64.25,230.0
64.26,250.0
64.27,240.0
64.28,229.0
64.29,222.0
64.3,244.0
64.31,241.0
64.32,224.0
64.33,234.0
64.34,225.0
64.35,233.0
64.36,239.0
64.37,263.0
64.38,233.0
64.39,209.0
64.4,221.0
64.41,206.0
64.42,239.0
64.43,239.0
64.44,245.0
64.45,265.0
64.46,239.0
64.47,255.0
64.48,198.0
64.49,231.0
64.5,226.0
64.51,212.0
64.52,227.0
64.53,213.0
64.54,218.0
64.55,230.0
64.56,241.0
64.57,245.0
64.58,229.0
64.59,233.0
64.6,212.0
64.61,237.0
64.62,223.0
64.63,227.0
64.64,232.0
64.65,220.0
64.66,234.0
64.67,243.0
64.68,216.0
64.69,207.0
64.7,243.0
64.71,210.0
64.72,191.0
64.73,235.0
64.74,220.0
64.75,234.0
64.76,231.0
64.77,214.0
64.78,237.0
64.79,216.0
64.8,211.0
64.81,215.0
64.82,210.0
64.83,233.0
64.84,231.0
64.85,241.0
64.86,241.0
64.87,235.0
64.88,222.0
64.89,222.0
64.9,217.0
64.91,235.0
64.92,225.0
64.93,233.0
64.94,218.0
64.95,246.0
64.96,231.0
64.97,230.0
64.98,227.0
64.99,244.0
65.0,218.0
65.01,236.0
65.02,218.0
65.03,205.0
65.04,223.0
65.05,225.0
65.06,214.0
65.07,223.0
65.08,225.0
65.09,214.0
65.1,205.0
65.11,236.0
65.12,237.0
65.13,250.0
65.14,233.0
65.15,247.0
65.16,217.0
65.17,235.0
65.18,192.0
65.19,252.0
65.2,221.0
65.21,233.0
65.22,190.0
65.23,226.0
65.24,228.0
65.25,252.0
65.26,229.0
65.27,219.0
65.28,234.0
65.29,237.0
65.3,206.0
65.31,214.0
65.32,226.0
65.33,209.0
65.34,212.0
65.35,222.0
65.36,249.0
65.37,216.0
65.38,222.0
65.39,230.0
65.4,229.0
65.41,204.0
65.42,238.0
65.43,234.0
65.44,200.0
65.45,234.0
65.46,208.0
65.47,242.0
65.48,226.0
65.49,235.0
65.5,231.0
65.51,245.0
65.52,215.0
65.53,221.0
65.54,227.0
65.55,226.0
65.56,223.0
65.57,201.0
65.58,239.0
65.59,241.0
65.6,209.0
65.61,232.0
65.62,242.0
65.63,195.0
65.64,237.0
65.65,244.0
65.66,214.0
65.67,227.0
65.68,247.0
65.69,229.0
65.7,227.0
65.71,240.0
65.72,229.0
65.73,233.0
65.74,231.0
65.75,221.0
65.76,211.0
65.77,216.0
65.78,214.0
65.79,243.0
65.8,206.0
65.81,191.0
65.82,229.0
65.83,219.0
65.84,209.0
65.85,233.0
65.86,253.0
65.87,197.0
65.88,221.0
65.89,204.0
65.9,200.0
65.91,223.0
65.92,220.0
65.93,224.0
65.94,221.0
65.95,214.0
65.96,227.0
65.97,221.0
65.98,245.0
65.99,221.0
66.0,213.0
66.01,259.0
66.02,219.0
66.03,233.0
66.04,205.0
66.05,220.0
66.06,213.0
66.07,233.0
66.08,224.0
66.09,250.0
66.1,223.0
66.11,229.0
66.12,240.0
66.13,225.0
66.14,256.0
66.15,213.0
66.16,208.0
66.17,242.0
66.18,211.0
66.19,250.0
66.2,229.0
66.21,199.0
66.22,229.0
66.23,232.0
66.24,221.0
66.25,231.0
66.26,219.0
66.27,228.0
66.28,225.0
66.29,230.0
66.3,213.0
66.31,233.0
66.32,225.0
66.33,221.0
66.34,228.0
66.35,207.0
66.36,220.0
66.37,217.0
66.38,232.0
66.39,234.0
66.4,211.0
66.41,228.0
66.42,223.0
66.43,247.0
66.44,218.0
66.45,229.0
66.46,208.0
66.47,218.0
66.48,218.0
66.49,230.0
66.5,223.0
66.51,218.0
66.52,208.0
66.53,223.0
66.54,198.0
66.55,235.0
66.56,216.0
66.57,220.0
66.58,229.0
66.59,214.0
66.6,213.0
66.61,222.0
66.62,226.0
66.63,235.0
66.64,250.0
66.65,195.0
66.66,206.0
66.67,197.0
66.68,240.0
66.69,241.0
66.7,200.0
66.71,246.0
66.72,200.0
66.73,212.0
66.74,219.0
66.75,230.0
66.76,218.0
66.77,224.0
66.78,217.0
66.79,220.0
66.8,230.0
66.81,223.0
66.82,254.0
66.83,210.0
66.84,233.0
66.85,222.0
66.86,211.0
66.87,206.0
66.88,198.0
66.89,224.0
66.9,234.0
66.91,233.0
66.92,210.0
66.93,226.0
66.94,226.0
66.95,212.0
66.96,231.0
66.97,207.0
66.98,214.0
66.99,192.0
67.0,218.0
67.01,239.0
67.02,246.0
67.03,223.0
67.04,242.0
67.05,213.0
67.06,230.0
67.07,239.0
67.08,223.0
67.09,234.0
67.1,242.0
67.11,217.0
67.12,239.0
67.13,224.0
67.14,237.0
67.15,222.0
67.16,214.0
67.17,221.0
67.18,228.0
67.19,228.0
67.2,221.0
67.21,234.0
67.22,234.0
67.23,228.0
67.24,238.0
67.25,198.0
67.26,252.0
67.27,215.0
67.28,178.0
67.29,231.0
67.3,204.0
67.31,227.0
67.32,235.0
67.33,221.0
67.34,238.0
67.35,202.0
67.36,229.0
67.37,232.0
67.38,236.0
67.39,228.0
67.4,232.0
67.41,250.0
67.42,266.0
67.43,227.0
67.44,206.0
67.45,219.0
67.46,212.0
67.47,229.0
67.48,230.0
67.49,235.0
67.5,237.0
67.51,226.0
67.52,239.0
67.53,214.0
67.54,220.0
67.55,226.0
67.56,237.0
67.57,208.0
67.58,237.0
67.59,223.0
67.6,268.0
67.61,213.0
67.62,239.0
67.63,219.0
67.64,201.0
67.65,211.0
67.66,236.0
67.67,209.0
67.68,228.0
67.69,198.0
67.7,193.0
67.71,216.0
67.72,226.0
67.73,234.0
67.74,210.0
67.75,193.0
67.76,261.0
67.77,211.0
67.78,201.0
67.79,203.0
67.8,222.0
67.81,217.0
67.82,266.0
67.83,243.0
67.84,210.0
67.85,189.0
67.86,226.0
67.87,215.0
67.88,235.0
67.89,233.0
67.9,231.0
67.91,204.0
67.92,227.0
67.93,231.0
67.94,213.0
67.95,229.0
67.96,237.0
67.97,209.0
67.98,219.0
67.99,235.0
68.0,235.0
68.01,205.0
68.02,240.0
68.03,240.0
68.04,246.0
68.05,232.0
68.06,210.0
68.07,232.0
68.08,235.0
68.09,227.0
68.1,220.0
68.11,224.0
68.12,233.0
68.13,241.0
68.14,235.0
68.15,218.0
68.16,209.0
68.17,236.0
68.18,200.0
68.19,224.0
68.2,221.0
68.21,203.0
68.22,236.0
68.23,232.0
68.24,221.0
68.25,253.0
68.26,225.0
68.27,243.0
68.28,212.0
68.29,223.0
68.3,209.0
68.31,207.0
68.32,200.0
68.33,221.0
68.34,243.0
68.35,206.0
68.36,202.0
68.37,241.0
68.38,207.0
68.39,222.0
68.4,236.0
68.41,216.0
68.42,221.0
68.43,216.0
68.44,213.0
68.45,220.0
68.46,219.0
68.47,209.0
68.48,241.0
68.49,229.0
68.5,217.0
68.51,249.0
68.52,242.0
68.53,250.0
68.54,229.0
68.55,210.0
68.56,234.0
68.57,231.0
68.58,249.0
68.59,194.0
68.6,242.0
68.61,224.0
68.62,223.0
68.63,218.0
68.64,231.0
68.65,238.0
68.66,212.0
68.67,210.0
68.68,235.0
68.69,243.0
68.7,227.0
68.71,234.0
68.72,242.0
68.73,229.0
68.74,210.0
68.75,224.0
68.76,225.0
68.77,220.0
68.78,224.0
68.79,214.0
68.8,233.0
68.81,225.0
68.82,231.0
68.83,239.0
68.84,226.0
68.85,194.0
68.86,229.0
68.87,231.0
68.88,219.0
68.89,223.0
68.9,243.0
68.91,194.0
68.92,231.0
68.93,224.0
68.94,230.0
68.95,233.0
68.96,242.0
68.97,226.0
68.98,225.0
68.99,228.0
69.0,232.0
69.01,215.0
69.02,216.0
69.03,199.0
69.04,238.0
69.05,236.0
69.06,258.0
69.07,223.0
69.08,227.0
69.09,241.0
69.1,252.0
69.11,219.0
69.12,211.0
69.13,230.0
69.14,224.0
69.15,208.0
69.16,218.0
69.17,215.0
69.18,208.0
69.19,228.0
69.2,215.0
69.21,231.0
69.22,230.0
69.23,243.0
69.24,227.0
69.25,210.0
69.26,243.0
69.27,219.0
69.28,228.0
69.29,241.0
69.3,233.0
69.31,234.0
69.32,217.0
69.33,227.0
69.34,182.0
69.35,230.0
69.36,206.0
69.37,237.0
69.38,237.0
69.39,209.0
69.4,235.0
69.41,229.0
69.42,244.0
69.43,228.0
69.44,240.0
69.45,234.0
69.46,228.0
69.47,211.0
69.48,249.0
69.49,199.0
69.5,234.0
69.51,195.0
69.52,232.0
69.53,237.0
69.54,233.0
69.55,257.0
69.56,212.0
69.57,211.0
69.58,205.0
69.59,246.0
69.6,268.0
69.61,245.0
69.62,226.0
69.63,219.0
69.64,224.0
69.65,263.0
69.66,211.0
69.67,232.0
69.68,226.0
69.69,224.0
69.7,234.0
69.71,242.0
69.72,203.0
69.73,208.0
69.74,225.0
69.75,186.0
69.76,207.0
69.77,221.0
69.78,247.0
69.79,220.0
69.8,219.0
69.81,225.0
69.82,219.0
69.83,213.0
69.84,216.0
69.85,215.0
69.86,212.0
69.87,213.0
69.88,234.0
69.89,235.0
69.9,231.0
69.91,238.0
69.92,246.0
69.93,231.0
69.94,243.0
69.95,216.0
69.96,203.0
69.97,224.0
69.98,235.0
69.99,224.0
70.0,225.0
70.01,227.0
70.02,255.0
70.03,224.0
70.04,217.0
70.05,221.0
70.06,214.0
70.07,235.0
70.08,189.0
70.09,215.0
70.1,190.0
70.11,225.0
70.12,225.0
70.13,206.0
70.14,228.0
70.15,213.0
70.16,225.0
70.17,214.0
70.18,200.0
70.19,219.0
70.2,228.0
70.21,245.0
70.22,208.0
70.23,221.0
70.24,204.0
70.25,207.0
70.26,230.0
70.27,228.0
70.28,226.0
70.29,217.0
70.3,233.0
70.31,236.0
70.32,215.0
70.33,212.0
70.34,231.0
70.35,190.0
70.36,228.0
70.37,238.0
70.38,227.0
70.39,223.0
70.4,239.0
70.41,231.0
70.42,245.0
70.43,221.0
70.44,208.0
70.45,262.0
70.46,203.0
70.47,225.0
70.48,212.0
70.49,229.0
70.5,232.0
70.51,253.0
70.52,219.0
70.53,220.0
70.54,242.0
70.55,221.0
70.56,209.0
70.57,241.0
70.58,207.0
70.59,235.0
70.6,231.0
70.61,225.0
70.62,210.0
70.63,241.0
70.64,215.0
70.65,219.0
70.66,224.0
70.67,232.0
70.68,217.0
70.69,223.0
70.7,180.0
70.71,224.0
70.72,238.0
70.73,222.0
70.74,205.0
70.75,237.0
70.76,210.0
70.77,206.0
70.78,230.0
70.79,216.0
70.8,257.0
70.81,227.0
70.82,253.0
70.83,204.0
70.84,271.0
70.85,210.0
70.86,217.0
70.87,199.0
70.88,236.0
70.89,264.0
70.9,235.0
70.91,214.0
70.92,251.0
70.93,224.0
70.94,199.0
70.95,203.0
70.96,231.0
70.97,208.0
70.98,243.0
70.99,243.0
71.0,227.0
71.01,222.0
71.02,221.0
71.03,219.0
71.04,242.0
71.05,215.0
71.06,205.0
71.07,245.0
71.08,209.0
71.09,213.0
71.1,245.0
71.11,181.0
71.12,248.0
71.13,234.0
71.14,231.0
71.15,222.0
71.16,220.0
71.17,219.0
71.18,246.0
71.19,264.0
71.2,201.0
71.21,200.0
71.22,230.0
71.23,230.0
71.24,207.0
71.25,236.0
71.26,252.0
71.27,224.0
71.28,218.0
71.29,228.0
71.3,203.0
71.31,249.0
71.32,255.0
71.33,231.0
71.34,225.0
71.35,252.0
71.36,223.0
71.37,228.0
71.38,233.0
71.39,226.0
71.4,217.0
71.41,224.0
71.42,194.0
71.43,223.0
71.44,212.0
71.45,255.0
71.46,246.0
71.47,253.0
71.48,217.0
71.49,247.0
71.5,225.0
71.51,227.0
71.52,218.0
71.53,220.0
71.54,212.0
71.55,219.0
71.56,242.0
71.57,246.0
71.58,216.0
71.59,244.0
71.6,209.0
71.61,203.0
71.62,220.0
71.63,232.0
71.64,221.0
71.65,218.0
71.66,233.0
71.67,246.0
71.68,215.0
71.69,236.0
71.7,254.0
71.71,224.0
71.72,229.0
71.73,229.0
71.74,214.0
71.75,264.0
71.76,223.0
71.77,217.0
71.78,230.0
71.79,237.0
71.8,220.0
71.81,243.0
71.82,214.0
71.83,235.0
71.84,213.0
71.85,226.0
71.86,190.0
71.87,215.0
71.88,237.0
71.89,210.0
71.9,231.0
71.91,248.0
71.92,233.0
71.93,202.0
71.94,239.0
71.95,253.0
71.96,228.0
71.97,225.0
71.98,247.0
71.99,255.0
72.0,251.0
72.01,229.0
72.02,253.0
72.03,248.0
72.04,259.0
72.05,224.0
72.06,256.0
72.07,216.0
72.08,223.0
72.09,226.0
72.1,236.0
72.11,232.0
72.12,235.0
72.13,240.0
72.14,243.0
72.15,249.0
72.16,208.0
72.17,218.0
72.18,210.0
72.19,249.0
72.2,244.0
72.21,236.0
72.22,240.0
72.23,230.0
72.24,200.0
72.25,256.0
72.26,237.0
72.27,239.0
72.28,214.0
72.29,197.0
72.3,219.0
72.31,232.0
72.32,238.0
72.33,219.0
72.34,246.0
72.35,254.0
72.36,221.0
72.37,227.0
72.38,227.0
72.39,238.0
72.4,220.0
72.41,238.0
72.42,222.0
72.43,230.0
72.44,211.0
72.45,234.0
72.46,205.0
72.47,242.0
72.48,231.0
72.49,232.0
72.5,212.0
72.51,228.0
72.52,233.0
72.53,245.0
72.54,246.0
72.55,229.0
72.56,266.0
72.57,206.0
72.58,255.0
72.59,234.0
72.6,223.0
72.61,230.0
72.62,226.0
72.63,235.0
72.64,214.0
72.65,220.0
72.66,218.0
72.67,222.0
72.68,231.0
72.69,230.0
72.7,248.0
72.71,237.0
72.72,203.0
72.73,217.0
72.74,230.0
72.75,223.0
72.76,233.0
72.77,227.0
72.78,227.0
72.79,236.0
72.8,259.0
72.81,231.0
72.82,203.0
72.83,217.0
72.84,246.0
72.85,223.0
72.86,232.0
72.87,248.0
72.88,221.0
72.89,221.0
72.9,238.0
72.91,231.0
72.92,241.0
72.93,189.0
72.94,212.0
72.95,247.0
72.96,233.0
72.97,201.0
72.98,223.0
72.99,233.0
73.0,218.0
73.01,279.0
73.02,250.0
73.03,221.0
73.04,211.0
73.05,236.0
73.06,242.0
73.07,224.0
73.08,194.0
73.09,239.0
73.1,231.0
73.11,246.0
73.12,237.0
73.13,206.0
73.14,233.0
73.15,201.0
73.16,210.0
73.17,233.0
73.18,227.0
73.19,234.0
73.2,226.0
73.21,243.0
73.22,228.0
73.23,205.0
73.24,257.0
73.25,211.0
73.26,231.0
73.27,239.0
73.28,237.0
73.29,227.0
73.3,219.0
73.31,241.0
73.32,240.0
73.33,216.0
73.34,233.0
73.35,215.0
73.36,233.0
73.37,242.0
73.38,207.0
73.39,229.0
73.4,219.0
73.41,241.0
73.42,208.0
73.43,234.0
73.44,222.0
73.45,248.0
73.46,255.0
73.47,199.0
73.48,246.0
73.49,244.0
73.5,229.0
73.51,232.0
73.52,247.0
73.53,206.0
73.54,228.0
73.55,228.0
73.56,240.0
73.57,227.0
73.58,224.0
73.59,220.0
73.6,207.0
73.61,232.0
73.62,246.0
73.63,255.0
73.64,223.0
73.65,229.0
73.66,223.0
73.67,242.0
73.68,215.0
73.69,248.0
73.7,256.0
73.71,228.0
73.72,214.0
73.73,238.0
73.74,222.0
73.75,257.0
73.76,238.0
73.77,228.0
73.78,243.0
73.79,255.0
73.8,239.0
73.81,231.0
73.82,235.0
73.83,241.0
73.84,208.0
73.85,234.0
73.86,260.0
73.87,219.0
73.88,232.0
73.89,242.0
73.9,232.0
73.91,228.0
73.92,240.0
73.93,229.0
73.94,239.0
73.95,212.0
73.96,249.0
73.97,235.0
73.98,224.0
73.99,237.0
74.0,245.0
74.01,197.0
74.02,217.0
74.03,200.0
74.04,239.0
74.05,214.0
74.06,227.0
74.07,228.0
74.08,216.0
74.09,223.0
74.1,223.0
74.11,230.0
74.12,217.0
74.13,267.0
74.14,231.0
74.15,231.0
74.16,216.0
74.17,235.0
74.18,212.0
74.19,240.0
74.2,216.0
74.21,235.0
74.22,217.0
74.23,244.0
74.24,211.0
74.25,213.0
74.26,241.0
74.27,240.0
74.28,243.0
74.29,223.0
74.3,221.0
74.31,212.0
74.32,238.0
74.33,190.0
74.34,251.0
74.35,221.0
74.36,244.0
74.37,220.0
74.38,235.0
74.39,189.0
74.4,233.0
74.41,232.0
74.42,221.0
74.43,235.0
74.44,232.0
74.45,206.0
74.46,227.0
74.47,242.0
74.48,230.0
74.49,217.0
74.5,224.0
74.51,206.0
74.52,252.0
74.53,239.0
74.54,235.0
74.55,214.0
74.56,238.0
74.57,265.0
74.58,225.0
74.59,218.0
74.6,224.0
74.61,240.0
74.62,222.0
74.63,215.0
74.64,242.0
74.65,225.0
74.66,219.0
74.67,240.0
74.68,208.0
74.69,254.0
74.7,200.0
74.71,240.0
74.72,233.0
74.73,240.0
74.74,234.0
74.75,182.0
74.76,231.0
74.77,209.0
74.78,192.0
74.79,220.0
74.8,225.0
74.81,226.0
74.82,231.0
74.83,238.0
74.84,221.0
74.85,212.0
74.86,210.0
74.87,215.0
74.88,221.0
74.89,219.0
74.9,240.0
74.91,223.0
74.92,217.0
74.93,230.0
74.94,234.0
74.95,202.0
74.96,240.0
74.97,233.0
74.98,229.0
74.99,237.0
75.0,213.0
75.01,223.0
75.02,206.0
75.03,223.0
75.04,242.0
75.05,227.0
75.06,224.0
75.07,207.0
75.08,234.0
75.09,265.0
75.1,233.0
75.11,229.0
75.12,237.0
75.13,214.0
75.14,254.0
75.15,208.0
75.16,218.0
75.17,202.0
75.18,228.0
75.19,236.0
75.2,230.0
75.21,221.0
75.22,221.0
75.23,218.0
75.24,202.0
75.25,246.0
75.26,234.0
75.27,189.0
75.28,225.0
75.29,221.0
75.3,231.0
75.31,218.0
75.32,212.0
75.33,224.0
75.34,232.0
75.35,268.0
75.36,231.0
75.37,258.0
75.38,242.0
75.39,233.0
75.4,244.0
75.41,227.0
75.42,234.0
75.43,213.0
75.44,215.0
75.45,250.0
75.46,252.0
75.47,237.0
75.48,231.0
75.49,237.0
75.5,225.0
75.51,220.0
75.52,260.0
75.53,233.0
75.54,274.0
75.55,233.0
75.56,252.0
75.57,234.0
75.58,239.0
75.59,210.0
75.6,236.0
75.61,232.0
75.62,210.0
75.63,229.0
75.64,231.0
75.65,229.0
75.66,228.0
75.67,234.0
75.68,220.0
75.69,242.0
75.7,253.0
75.71,216.0
75.72,209.0
75.73,242.0
75.74,233.0
75.75,213.0
75.76,212.0
75.77,207.0
75.78,230.0
75.79,223.0
75.8,236.0
75.81,217.0
75.82,254.0
75.83,242.0
75.84,224.0
75.85,208.0
75.86,235.0
75.87,224.0
75.88,243.0
75.89,229.0
75.9,236.0
75.91,241.0
75.92,229.0
75.93,220.0
75.94,206.0
75.95,239.0
75.96,208.0
75.97,224.0
75.98,226.0
75.99,252.0
76.0,233.0
76.01,244.0
76.02,218.0
76.03,226.0
76.04,221.0
76.05,190.0
76.06,237.0
76.07,248.0
76.08,219.0
76.09,241.0
76.1,222.0
76.11,226.0
76.12,230.0
76.13,244.0
76.14,233.0
76.15,224.0
76.16,235.0
76.17,254.0
76.18,195.0
76.19,209.0
76.2,233.0
76.21,227.0
76.22,222.0
76.23,218.0
76.24,190.0
76.25,233.0
76.26,218.0
76.27,205.0
76.28,217.0
76.29,258.0
76.3,213.0
76.31,208.0
76.32,216.0
76.33,230.0
76.34,223.0
76.35,211.0
76.36,257.0
76.37,250.0
76.38,207.0
76.39,197.0
76.4,226.0
76.41,230.0
76.42,220.0
76.43,221.0
76.44,186.0
76.45,196.0
76.46,218.0
76.47,242.0
76.48,244.0
76.49,238.0
76.5,225.0
76.51,231.0
76.52,229.0
76.53,223.0
76.54,227.0
76.55,205.0
76.56,238.0
76.57,256.0
76.58,218.0
76.59,246.0
76.6,220.0
76.61,226.0
76.62,251.0
76.63,227.0
76.64,224.0
76.65,221.0
76.66,216.0
76.67,221.0
76.68,226.0
76.69,200.0
76.7,225.0
76.71,217.0
76.72,231.0
76.73,200.0
76.74,242.0
76.75,214.0
76.76,208.0
76.77,232.0
76.78,220.0
76.79,262.0
76.8,254.0
76.81,249.0
76.82,265.0
76.83,237.0
76.84,244.0
76.85,248.0
76.86,202.0
76.87,223.0
76.88,199.0
76.89,202.0
76.9,239.0
76.91,209.0
76.92,235.0
76.93,195.0
76.94,220.0
76.95,238.0
76.96,228.0
76.97,215.0
76.98,243.0
76.99,240.0
77.0,233.0
77.01,234.0
77.02,192.0
77.03,230.0
77.04,201.0
77.05,209.0
77.06,235.0
77.07,211.0
77.08,234.0
77.09,230.0
77.1,232.0
77.11,243.0
77.12,208.0
77.13,211.0
77.14,223.0
77.15,253.0
77.16,253.0
77.17,235.0
77.18,204.0
77.19,197.0
77.2,199.0
77.21,228.0
77.22,217.0
77.23,217.0
77.24,230.0
77.25,235.0
77.26,219.0
77.27,210.0
77.28,257.0
77.29,214.0
77.3,231.0
77.31,215.0
77.32,237.0
77.33,221.0
77.34,226.0
77.35,227.0
77.36,186.0
77.37,218.0
77.38,225.0
77.39,243.0
77.4,243.0
77.41,225.0
77.42,222.0
77.43,244.0
77.44,238.0
77.45,226.0
77.46,217.0
77.47,207.0
77.48,218.0
77.49,227.0
77.5,227.0
77.51,236.0
77.52,240.0
77.53,228.0
77.54,255.0
77.55,235.0
77.56,225.0
77.57,236.0
77.58,261.0
77.59,243.0
77.6,246.0
77.61,228.0
77.62,220.0
77.63,223.0
77.64,214.0
77.65,203.0
77.66,207.0
77.67,244.0
77.68,224.0
77.69,234.0
77.7,217.0
77.71,223.0
77.72,237.0
77.73,239.0
77.74,218.0
77.75,241.0
77.76,237.0
77.77,200.0
77.78,223.0
77.79,224.0
77.8,238.0
77.81,223.0
77.82,222.0
77.83,242.0
77.84,216.0
77.85,225.0
77.86,240.0
77.87,224.0
77.88,217.0
77.89,201.0
77.9,258.0
77.91,221.0
77.92,210.0
77.93,207.0
77.94,225.0
77.95,220.0
77.96,220.0
77.97,230.0
77.98,225.0
77.99,244.0
78.0,233.0
78.01,251.0
78.02,219.0
78.03,224.0
78.04,222.0
78.05,226.0
78.06,225.0
78.07,197.0
78.08,215.0
78.09,207.0
78.1,222.0
78.11,237.0
78.12,203.0
78.13,218.0
78.14,215.0
78.15,226.0
78.16,243.0
78.17,218.0
78.18,227.0
78.19,242.0
78.2,245.0
78.21,255.0
78.22,217.0
78.23,226.0
78.24,224.0
78.25,229.0
78.26,236.0
78.27,237.0
78.28,220.0
78.29,244.0
78.3,206.0
78.31,219.0
78.32,237.0
78.33,218.0
78.34,222.0
78.35,223.0
78.36,237.0
78.37,221.0
78.38,234.0
78.39,188.0
78.4,223.0
78.41,218.0
78.42,240.0
78.43,212.0
78.44,235.0
78.45,206.0
78.46,237.0
78.47,208.0
78.48,217.0
78.49,211.0
78.5,249.0
78.51,226.0
78.52,251.0
78.53,231.0
78.54,219.0
78.55,234.0
78.56,225.0
78.57,229.0
78.58,257.0
78.59,204.0
78.6,187.0
78.61,204.0
78.62,238.0
78.63,214.0
78.64,230.0
78.65,234.0
78.66,213.0
78.67,217.0
78.68,228.0
78.69,243.0
78.7,206.0
78.71,253.0
78.72,253.0
78.73,225.0
78.74,213.0
78.75,224.0
78.76,234.0
78.77,217.0
78.78,241.0
78.79,234.0
78.8,216.0
78.81,238.0
78.82,205.0
78.83,248.0
78.84,216.0
78.85,238.0
78.86,239.0
78.87,235.0
78.88,230.0
78.89,241.0
78.9,237.0
78.91,243.0
78.92,250.0
78.93,218.0
78.94,223.0
78.95,238.0
78.96,232.0
78.97,229.0
78.98,209.0
78.99,226.0
79.0,239.0
79.01,238.0
79.02,230.0
79.03,211.0
79.04,221.0
79.05,203.0
79.06,251.0
79.07,261.0
79.08,227.0
79.09,231.0
79.1,242.0
79.11,216.0
79.12,223.0
79.13,235.0
79.14,247.0
79.15,226.0
79.16,219.0
79.17,225.0
79.18,236.0
79.19,232.0
79.2,227.0
79.21,205.0
79.22,258.0
79.23,227.0
79.24,222.0
79.25,202.0
79.26,233.0
79.27,214.0
79.28,235.0
79.29,233.0
79.3,197.0
79.31,247.0
79.32,224.0
79.33,231.0
79.34,242.0
79.35,220.0
79.36,200.0
79.37,208.0
79.38,212.0
79.39,234.0
79.4,242.0
79.41,223.0
79.42,197.0
79.43,224.0
79.44,233.0
79.45,202.0
79.46,215.0
79.47,225.0
79.48,266.0
79.49,225.0
79.5,215.0
79.51,241.0
79.52,248.0
79.53,231.0
79.54,228.0
79.55,239.0
79.56,227.0
79.57,232.0
79.58,209.0
79.59,249.0
79.6,228.0
79.61,215.0
79.62,216.0
79.63,244.0
79.64,205.0
79.65,258.0
79.66,199.0
79.67,242.0
79.68,210.0
79.69,241.0
79.7,221.0
79.71,246.0
79.72,237.0
79.73,248.0
79.74,251.0
79.75,233.0
79.76,227.0
79.77,233.0
79.78,216.0
79.79,219.0
79.8,203.0
79.81,213.0
79.82,225.0
79.83,209.0
79.84,240.0
79.85,225.0
79.86,232.0
79.87,244.0
79.88,201.0
79.89,245.0
79.9,215.0
79.91,239.0
79.92,229.0
79.93,221.0
79.94,220.0
79.95,230.0
79.96,237.0
79.97,242.0
79.98,214.0
79.99,229.0
80.0,240.0
80.01,218.0
80.02,213.0
80.03,180.0
80.04,232.0
80.05,232.0
80.06,198.0
80.07,211.0
80.08,198.0
80.09,219.0
80.1,195.0
80.11,215.0
80.12,277.0
80.13,222.0
80.14,221.0
80.15,211.0
80.16,236.0
80.17,196.0
80.18,225.0
80.19,224.0
80.2,215.0
80.21,212.0
80.22,204.0
80.23,208.0
80.24,223.0
80.25,237.0
80.26,213.0
80.27,235.0
80.28,205.0
80.29,240.0
80.3,203.0
80.31,227.0
80.32,251.0
80.33,229.0
80.34,228.0
80.35,229.0
80.36,227.0
80.37,234.0
80.38,247.0
80.39,203.0
80.4,269.0
80.41,229.0
80.42,211.0
80.43,204.0
80.44,246.0
80.45,224.0
80.46,232.0
80.47,205.0
80.48,216.0
80.49,223.0
80.5,206.0
80.51,260.0
80.52,252.0
80.53,231.0
80.54,238.0
80.55,242.0
80.56,214.0
80.57,218.0
80.58,222.0
80.59,225.0
80.6,215.0
80.61,216.0
80.62,212.0
80.63,227.0
80.64,207.0
80.65,229.0
80.66,205.0
80.67,237.0
80.68,235.0
80.69,256.0
80.7,222.0
80.71,243.0
80.72,275.0
80.73,240.0
80.74,221.0
80.75,247.0
80.76,220.0
80.77,228.0
80.78,238.0
80.79,246.0
80.8,237.0
80.81,224.0
80.82,225.0
80.83,207.0
80.84,241.0
80.85,252.0
80.86,224.0
80.87,238.0
80.88,235.0
80.89,215.0
80.9,244.0
80.91,235.0
80.92,222.0
80.93,241.0
80.94,210.0
80.95,227.0
80.96,236.0
80.97,245.0
80.98,221.0
80.99,229.0
81.0,225.0
81.01,233.0
81.02,237.0
81.03,232.0
81.04,218.0
81.05,216.0
81.06,212.0
81.07,234.0
81.08,218.0
81.09,233.0
81.1,206.0
81.11,240.0
81.12,235.0
81.13,221.0
81.14,231.0
81.15,201.0
81.16,236.0
81.17,210.0
81.18,245.0
81.19,204.0
81.2,223.0
81.21,230.0
81.22,266.0
81.23,227.0
81.24,208.0
81.25,215.0
81.26,230.0
81.27,216.0
81.28,233.0
81.29,214.0
81.3,239.0
81.31,241.0
81.32,233.0
81.33,237.0
81.34,244.0
81.35,216.0
81.36,227.0
81.37,239.0
81.38,242.0
81.39,222.0
81.4,243.0
81.41,232.0
81.42,228.0
81.43,229.0
81.44,218.0
81.45,226.0
81.46,216.0
81.47,229.0
81.48,210.0
81.49,227.0
81.5,249.0
81.51,192.0
81.52,217.0
81.53,240.0
81.54,229.0
81.55,229.0
81.56,229.0
81.57,254.0
81.58,239.0
81.59,231.0
81.6,208.0
81.61,230.0
81.62,202.0
81.63,218.0
81.64,247.0
81.65,243.0
81.66,213.0
81.67,223.0
81.68,212.0
81.69,261.0
81.7,219.0
81.71,224.0
81.72,203.0
81.73,210.0
81.74,242.0
81.75,193.0
81.76,218.0
81.77,222.0
81.78,225.0
81.79,232.0
81.8,248.0
81.81,198.0
81.82,205.0
81.83,204.0
81.84,207.0
81.85,218.0
81.86,224.0
81.87,241.0
81.88,219.0
81.89,215.0
81.9,234.0
81.91,247.0
81.92,222.0
81.93,248.0
81.94,238.0
81.95,208.0
81.96,224.0
81.97,208.0
81.98,250.0
81.99,228.0
82.0,251.0
82.01,249.0
82.02,230.0
82.03,221.0
82.04,230.0
82.05,230.0
82.06,218.0
82.07,219.0
82.08,232.0
82.09,223.0
82.1,224.0
82.11,229.0
82.12,219.0
82.13,208.0
82.14,239.0
82.15,251.0
82.16,222.0
82.17,213.0
82.18,242.0
82.19,213.0
82.2,237.0
82.21,225.0
82.22,224.0
82.23,232.0
82.24,186.0
82.25,242.0
82.26,212.0
82.27,194.0
82.28,224.0
82.29,250.0
82.3,203.0
82.31,211.0
82.32,218.0
82.33,211.0
82.34,246.0
82.35,237.0
82.36,211.0
82.37,229.0
82.38,237.0
82.39,206.0
82.4,215.0
82.41,217.0
82.42,228.0
82.43,221.0
82.44,215.0
82.45,249.0
82.46,223.0
82.47,206.0
82.48,228.0
82.49,239.0
82.5,210.0
82.51,260.0
82.52,239.0
82.53,208.0
82.54,228.0
82.55,222.0
82.56,219.0
82.57,220.0
82.58,233.0
82.59,233.0
82.6,219.0
82.61,231.0
82.62,259.0
82.63,222.0
82.64,205.0
82.65,239.0
82.66,220.0
82.67,239.0
82.68,227.0
82.69,236.0
82.7,218.0
82.71,227.0
82.72,219.0
82.73,228.0
82.74,215.0
82.75,231.0
82.76,249.0
82.77,226.0
82.78,251.0
82.79,220.0
82.8,241.0
82.81,224.0
82.82,215.0
82.83,244.0
82.84,212.0
82.85,232.0
82.86,229.0
82.87,224.0
82.88,220.0
82.89,239.0
82.9,221.0
82.91,232.0
82.92,244.0
82.93,201.0
82.94,246.0
82.95,247.0
82.96,235.0
82.97,219.0
82.98,230.0
82.99,220.0
83.0,201.0
83.01,228.0
83.02,229.0
83.03,216.0
83.04,231.0
83.05,243.0
83.06,226.0
83.07,238.0
83.08,219.0
83.09,207.0
83.1,243.0
83.11,247.0
83.12,240.0
83.13,244.0
83.14,247.0
83.15,268.0
83.16,217.0
83.17,240.0
83.18,202.0
83.19,223.0
83.2,230.0
83.21,219.0
83.22,252.0
83.23,257.0
83.24,249.0
83.25,241.0
83.26,226.0
83.27,223.0
83.28,226.0
83.29,216.0
83.3,227.0
83.31,227.0
83.32,225.0
83.33,222.0
83.34,237.0
83.35,208.0
83.36,233.0
83.37,220.0
83.38,212.0
83.39,240.0
83.4,209.0
83.41,245.0
83.42,244.0
83.43,249.0
83.44,239.0
83.45,223.0
83.46,208.0
83.47,226.0
83.48,238.0
83.49,242.0
83.5,215.0
83.51,245.0
83.52,224.0
83.53,217.0
83.54,221.0
83.55,199.0
83.56,248.0
83.57,206.0
83.58,212.0
83.59,199.0
83.6,256.0
83.61,217.0
83.62,230.0
83.63,207.0
83.64,230.0
83.65,236.0
83.66,215.0
83.67,237.0
83.68,207.0
83.69,220.0
83.7,207.0
83.71,239.0
83.72,232.0
83.73,220.0
83.74,229.0
83.75,223.0
83.76,206.0
83.77,211.0
83.78,231.0
83.79,215.0
83.8,219.0
83.81,231.0
83.82,243.0
83.83,228.0
83.84,258.0
83.85,232.0
83.86,227.0
83.87,208.0
83.88,222.0
83.89,225.0
83.9,227.0
83.91,230.0
83.92,233.0
83.93,222.0
83.94,242.0
83.95,227.0
83.96,213.0
83.97,217.0
83.98,215.0
83.99,244.0
84.0,223.0
84.01,219.0
84.02,235.0
84.03,217.0
84.04,218.0
84.05,204.0
84.06,212.0
84.07,239.0
84.08,219.0
84.09,249.0
84.1,224.0
84.11,217.0
84.12,231.0
84.13,238.0
84.14,216.0
84.15,224.0
84.16,244.0
84.17,223.0
84.18,249.0
84.19,273.0
84.2,239.0
84.21,243.0
84.22,249.0
84.23,254.0
84.24,231.0
84.25,211.0
84.26,211.0
84.27,217.0
84.28,204.0
84.29,209.0
84.3,221.0
84.31,242.0
84.32,215.0
84.33,221.0
84.34,207.0
84.35,223.0
84.36,240.0
84.37,213.0
84.38,222.0
84.39,246.0
84.4,231.0
84.41,232.0
84.42,226.0
84.43,247.0
84.44,218.0
84.45,227.0
84.46,230.0
84.47,241.0
84.48,244.0
84.49,217.0
84.5,249.0
84.51,215.0
84.52,221.0
84.53,248.0
84.54,239.0
84.55,238.0
84.56,226.0
84.57,222.0
84.58,223.0
84.59,210.0
84.6,222.0
84.61,218.0
84.62,245.0
84.63,249.0
84.64,223.0
84.65,231.0
84.66,254.0
84.67,212.0
84.68,195.0
84.69,203.0
84.7,245.0
84.71,229.0
84.72,241.0
84.73,250.0
84.74,224.0
84.75,247.0
84.76,221.0
84.77,239.0
84.78,249.0
84.79,232.0
84.8,228.0
84.81,232.0
84.82,212.0
84.83,224.0
84.84,204.0
84.85,237.0
84.86,230.0
84.87,239.0
84.88,212.0
84.89,265.0
84.9,234.0
84.91,258.0
84.92,232.0
84.93,243.0
84.94,248.0
84.95,216.0
84.96,249.0
84.97,230.0
84.98,245.0
84.99,228.0
85.0,245.0
85.01,218.0
85.02,243.0
85.03,234.0
85.04,259.0
85.05,240.0
85.06,241.0
85.07,235.0
85.08,233.0
85.09,258.0
85.1,224.0
85.11,233.0
85.12,253.0
85.13,221.0
85.14,210.0
85.15,236.0
85.16,257.0
85.17,203.0
85.18,236.0
85.19,240.0
85.2,223.0
85.21,212.0
85.22,218.0
85.23,220.0
85.24,244.0
85.25,225.0
85.26,241.0
85.27,242.0
85.28,224.0
85.29,251.0
85.3,260.0
85.31,246.0
85.32,218.0
85.33,206.0
85.34,244.0
85.35,232.0
85.36,211.0
85.37,231.0
85.38,242.0
85.39,234.0
85.4,231.0
85.41,218.0
85.42,247.0
85.43,232.0
85.44,246.0
85.45,247.0
85.46,243.0
85.47,210.0
85.48,213.0
85.49,220.0
85.5,211.0
85.51,239.0
85.52,230.0
85.53,228.0
85.54,244.0
85.55,233.0
85.56,217.0
85.57,224.0
85.58,229.0
85.59,219.0
85.6,252.0
85.61,216.0
85.62,213.0
85.63,197.0
85.64,222.0
85.65,241.0
85.66,217.0
85.67,216.0
85.68,231.0
85.69,227.0
85.7,223.0
85.71,202.0
85.72,254.0
85.73,225.0
85.74,194.0
85.75,233.0
85.76,237.0
85.77,232.0
85.78,225.0
85.79,243.0
85.8,229.0
85.81,219.0
85.82,202.0
85.83,211.0
85.84,216.0
85.85,194.0
85.86,217.0
85.87,230.0
85.88,210.0
85.89,195.0
85.9,225.0
85.91,208.0
85.92,251.0
85.93,204.0
85.94,239.0
85.95,203.0
85.96,211.0
85.97,221.0
85.98,231.0
85.99,209.0
86.0,216.0
86.01,227.0
86.02,218.0
86.03,276.0
86.04,216.0
86.05,223.0
86.06,222.0
86.07,233.0
86.08,223.0
86.09,227.0
86.1,241.0
86.11,223.0
86.12,249.0
86.13,202.0
86.14,242.0
86.15,211.0
86.16,248.0
86.17,223.0
86.18,192.0
86.19,226.0
86.2,207.0
86.21,209.0
86.22,193.0
86.23,229.0
86.24,226.0
86.25,222.0
86.26,227.0
86.27,252.0
86.28,254.0
86.29,253.0
86.3,225.0
86.31,226.0
86.32,259.0
86.33,238.0
86.34,238.0
86.35,242.0
86.36,219.0
86.37,237.0
86.38,197.0
86.39,225.0
86.4,239.0
86.41,230.0
86.42,205.0
86.43,254.0
86.44,239.0
86.45,209.0
86.46,232.0
86.47,220.0
86.48,203.0
86.49,235.0
86.5,216.0
86.51,219.0
86.52,231.0
86.53,222.0
86.54,235.0
86.55,223.0
86.56,217.0
86.57,229.0
86.58,250.0
86.59,227.0
86.6,213.0
86.61,233.0
86.62,218.0
86.63,221.0
86.64,229.0
86.65,232.0
86.66,225.0
86.67,224.0
86.68,219.0
86.69,233.0
86.7,236.0
86.71,226.0
86.72,249.0
86.73,213.0
86.74,225.0
86.75,235.0
86.76,228.0
86.77,210.0
86.78,210.0
86.79,208.0
86.8,225.0
86.81,253.0
86.82,245.0
86.83,218.0
86.84,215.0
86.85,199.0
86.86,233.0
86.87,220.0
86.88,214.0
86.89,229.0
86.9,223.0
86.91,238.0
86.92,245.0
86.93,200.0
86.94,229.0
86.95,252.0
86.96,206.0
86.97,230.0
86.98,248.0
86.99,216.0
87.0,228.0
87.01,204.0
87.02,217.0
87.03,232.0
87.04,199.0
87.05,237.0
87.06,190.0
87.07,208.0
87.08,212.0
87.09,229.0
87.1,205.0
87.11,214.0
87.12,214.0
87.13,227.0
87.14,243.0
87.15,211.0
87.16,237.0
87.17,209.0
87.18,222.0
87.19,218.0
87.2,218.0
87.21,252.0
87.22,211.0
87.23,232.0
87.24,221.0
87.25,239.0
87.26,214.0
87.27,222.0
87.28,220.0
87.29,236.0
87.3,222.0
87.31,239.0
87.32,244.0
87.33,238.0
87.34,243.0
87.35,226.0
87.36,204.0
87.37,246.0
87.38,228.0
87.39,249.0
87.4,201.0
87.41,247.0
87.42,219.0
87.43,242.0
87.44,198.0
87.45,221.0
87.46,220.0
87.47,227.0
87.48,222.0
87.49,187.0
87.5,227.0
87.51,212.0
87.52,226.0
87.53,229.0
87.54,253.0
87.55,229.0
87.56,216.0
87.57,238.0
87.58,263.0
87.59,201.0
87.6,255.0
87.61,233.0
87.62,255.0
87.63,220.0
87.64,244.0
87.65,228.0
87.66,244.0
87.67,228.0
87.68,219.0
87.69,221.0
87.7,215.0
87.71,228.0
87.72,224.0
87.73,231.0
87.74,241.0
87.75,226.0
87.76,216.0
87.77,230.0
87.78,256.0
87.79,212.0
87.8,225.0
87.81,229.0
87.82,199.0
87.83,246.0
87.84,230.0
87.85,226.0
87.86,227.0
87.87,217.0
87.88,224.0
87.89,218.0
87.9,205.0
87.91,228.0
87.92,221.0
87.93,221.0
87.94,206.0
87.95,247.0
87.96,226.0
87.97,248.0
87.98,220.0
87.99,226.0
88.0,192.0
88.01,240.0
88.02,259.0
88.03,245.0
88.04,222.0
88.05,217.0
88.06,243.0
88.07,228.0
88.08,203.0
88.09,237.0
88.1,235.0
88.11,222.0
88.12,264.0
88.13,227.0
88.14,220.0
88.15,229.0
88.16,225.0
88.17,225.0
88.18,237.0
88.19,217.0
88.2,250.0
88.21,260.0
88.22,203.0
88.23,208.0
88.24,253.0
88.25,206.0
88.26,236.0
88.27,215.0
88.28,224.0
88.29,240.0
88.3,236.0
88.31,210.0
88.32,197.0
88.33,229.0
88.34,237.0
88.35,225.0
88.36,231.0
88.37,230.0
88.38,235.0
88.39,228.0
88.4,251.0
88.41,234.0
88.42,236.0
88.43,236.0
88.44,232.0
88.45,207.0
88.46,226.0
88.47,209.0
88.48,236.0
88.49,257.0
88.5,249.0
88.51,227.0
88.52,240.0
88.53,258.0
88.54,211.0
88.55,246.0
88.56,240.0
88.57,240.0
88.58,230.0
88.59,209.0
88.6,221.0
88.61,218.0
88.62,242.0
88.63,218.0
88.64,234.0
88.65,230.0
88.66,226.0
88.67,232.0
88.68,219.0
88.69,248.0
88.7,237.0
88.71,215.0
88.72,234.0
88.73,200.0
88.74,240.0
88.75,237.0
88.76,249.0
88.77,219.0
88.78,237.0
88.79,242.0
88.8,245.0
88.81,245.0
88.82,237.0
88.83,206.0
88.84,236.0
88.85,223.0
88.86,230.0
88.87,240.0
88.88,217.0
88.89,208.0
88.9,246.0
88.91,230.0
88.92,222.0
88.93,218.0
88.94,216.0
88.95,228.0
88.96,208.0
88.97,192.0
88.98,250.0
88.99,251.0
89.0,231.0
89.01,230.0
89.02,216.0
89.03,232.0
89.04,238.0
89.05,251.0
89.06,235.0
89.07,228.0
89.08,227.0
89.09,208.0
89.1,250.0
89.11,218.0
89.12,253.0
89.13,243.0
89.14,258.0
89.15,241.0
89.16,252.0
89.17,226.0
89.18,212.0
89.19,223.0
89.2,229.0
89.21,247.0
89.22,237.0
89.23,214.0
89.24,215.0
89.25,240.0
89.26,226.0
89.27,226.0
89.28,245.0
89.29,229.0
89.3,231.0
89.31,240.0
89.32,215.0
89.33,234.0
89.34,228.0
89.35,262.0
89.36,205.0
89.37,248.0
89.38,219.0
89.39,233.0
89.4,221.0
89.41,241.0
89.42,212.0
89.43,214.0
89.44,237.0
89.45,221.0
89.46,239.0
89.47,194.0
89.48,238.0
89.49,240.0
89.5,228.0
89.51,229.0
89.52,222.0
89.53,244.0
89.54,236.0
89.55,193.0
89.56,224.0
89.57,237.0
89.58,224.0
89.59,230.0
89.6,236.0
89.61,244.0
89.62,220.0
89.63,200.0
89.64,242.0
89.65,244.0
89.66,218.0
89.67,225.0
89.68,222.0
89.69,219.0
89.7,246.0
89.71,228.0
89.72,226.0
89.73,243.0
89.74,226.0
89.75,258.0
89.76,244.0
89.77,244.0
89.78,219.0
89.79,249.0
89.8,230.0
89.81,188.0
89.82,244.0
89.83,270.0
89.84,215.0
89.85,255.0
89.86,211.0
89.87,208.0
89.88,229.0
89.89,203.0
89.9,213.0
89.91,241.0
89.92,217.0
89.93,238.0
89.94,211.0
89.95,229.0
89.96,251.0
89.97,214.0
89.98,234.0
89.99,241.0
90.0,221.0
