angle,intensity
5.0,47.0
5.01,42.0
5.02,40.0
5.03,62.0
5.04,61.0
5.05,37.0
5.06,36.0
5.07,59.0
5.08,40.0
5.09,55.0
5.1,44.0
5.11,42.0
5.12,42.0
5.13,44.0
5.14,61.0
5.15,33.0
5.16,38.0
5.17,32.0
5.18,51.0
5.19,44.0
5.2,35.0
5.21,43.0
5.22,53.0
5.23,33.0
5.24,35.0
5.25,34.0
5.26,36.0
5.27,54.0
5.28,55.0
5.29,52.0
5.3,45.0
5.31,26.0
5.32,40.0
5.33,43.0
5.34,37.0
5.35,49.0
5.36,28.0
5.37,51.0
5.38,53.0
5.39,37.0
5.4,40.0
5.41,39.0
5.42,49.0
5.43,40.0
5.44,40.0
5.45,32.0
5.46,42.0
5.47,39.0
5.48,46.0
5.49,35.0
5.5,43.0
5.51,48.0
5.52,41.0
5.53,35.0
5.54,47.0
5.55,45.0
5.56,40.0
5.57,43.0
5.58,41.0
5.59,48.0
5.6,34.0
5.61,34.0
5.62,38.0
5.63,37.0
5.64,43.0
5.65,37.0
5.66,56.0
5.67,44.0
5.68,46.0
5.69,43.0
5.7,48.0
5.71,44.0
5.72,52.0
5.73,43.0
5.74,51.0
5.75,33.0
5.76,52.0
5.77,40.0
5.78,61.0
5.79,47.0
5.8,52.0
5.81,41.0
5.82,44.0
5.83,39.0
5.84,38.0
5.85,53.0
5.86,41.0
5.87,64.0
5.88,44.0
5.89,50.0
5.9,46.0
5.91,44.0
5.92,45.0
5.93,49.0
5.94,57.0
5.95,49.0
5.96,43.0
5.97,44.0
5.98,52.0
5.99,51.0
6.0,66.0
6.01,57.0
6.02,48.0
6.03,41.0
6.04,37.0
6.05,57.0
6.06,55.0
6.07,57.0
6.08,43.0
6.09,46.0
6.1,48.0
6.11,50.0
6.12,50.0
6.13,53.0
6.14,52.0
6.15,44.0
6.16,42.0
6.17,38.0
6.18,52.0
6.19,49.0
6.2,37.0
6.21,55.0
6.22,38.0
6.23,49.0
6.24,52.0
6.25,54.0
6.26,44.0
6.27,42.0
6.28,48.0
6.29,52.0
6.3,44.0
6.31,51.0
6.32,42.0
6.33,43.0
6.34,40.0
6.35,51.0
6.36,61.0
6.37,43.0
6.38,49.0
6.39,52.0
6.4,49.0
6.41,46.0
6.42,43.0
6.43,51.0
6.44,42.0
6.45,44.0
6.46,55.0
6.47,48.0
6.48,46.0
6.49,52.0
6.5,47.0
6.51,45.0
6.52,48.0
6.53,40.0
6.54,49.0
6.55,51.0
6.56,54.0
6.57,48.0
6.58,47.0
6.59,48.0
6.6,42.0
6.61,55.0
6.62,44.0
6.63,39.0
6.64,50.0
6.65,39.0
6.66,49.0
6.67,48.0
6.68,54.0
6.69,64.0
6.7,45.0
6.71,60.0
6.72,49.0
6.73,46.0
6.74,48.0
6.75,48.0
6.76,49.0
6.77,56.0
6.78,53.0
6.79,50.0
6.8,54.0
6.81,59.0
6.82,50.0
6.83,51.0
6.84,43.0
6.85,38.0
6.86,60.0
6.87,58.0
6.88,53.0
6.89,60.0
6.9,52.0
6.91,52.0
6.92,49.0
6.93,52.0
6.94,60.0
6.95,54.0
6.96,54.0
6.97,47.0
6.98,38.0
6.99,46.0
7.0,53.0
7.01,46.0
7.02,52.0
7.03,49.0
7.04,49.0
7.05,51.0
7.06,56.0
7.07,51.0
7.08,51.0
7.09,57.0
7.1,51.0
7.11,57.0
7.12,55.0
7.13,53.0
7.14,48.0
7.15,50.0
7.16,41.0
7.17,39.0
7.18,57.0
7.19,55.0
7.2,52.0
7.21,59.0
7.22,48.0
7.23,48.0
7.24,49.0
7.25,52.0
7.26,46.0
7.27,45.0
7.28,49.0
7.29,35.0
7.3,55.0
7.31,60.0
7.32,54.0
7.33,39.0
7.34,55.0
7.35,56.0
7.36,50.0
7.37,59.0
7.38,48.0
7.39,60.0
7.4,59.0
7.41,52.0
7.42,41.0
7.43,60.0
7.44,49.0
7.45,49.0
7.46,50.0
7.47,60.0
7.48,70.0
7.49,69.0
7.5,62.0
7.51,42.0
7.52,50.0
7.53,46.0
7.54,48.0
7.55,47.0
7.56,58.0
7.57,42.0
7.58,44.0
7.59,43.0
7.6,47.0
7.61,63.0
7.62,56.0
7.63,56.0
7.64,52.0
7.65,41.0
7.66,62.0
7.67,54.0
7.68,54.0
7.69,51.0
7.7,56.0
7.71,55.0
7.72,58.0
7.73,71.0
7.74,41.0
7.75,46.0
7.76,51.0
7.77,39.0
7.78,47.0
7.79,54.0
7.8,51.0
7.81,53.0
7.82,43.0
7.83,52.0
7.84,51.0
7.85,46.0
7.86,59.0
7.87,41.0
7.88,50.0
7.89,60.0
7.9,57.0
7.91,65.0
7.92,58.0
7.93,55.0
7.94,55.0
7.95,49.0
7.96,53.0
7.97,60.0
7.98,63.0
7.99,40.0
8.0,62.0
8.01,53.0
8.02,57.0
8.03,47.0
8.04,59.0
8.05,48.0
8.06,52.0
8.07,54.0
8.08,62.0
8.09,49.0
8.1,57.0
8.11,43.0
8.12,52.0
8.13,63.0
8.14,60.0
8.15,53.0
8.16,48.0
8.17,58.0
8.18,54.0
8.19,56.0
8.2,47.0
8.21,55.0
8.22,61.0
8.23,56.0
8.24,50.0
8.25,38.0
8.26,60.0
8.27,60.0
8.28,67.0
8.29,68.0
8.3,52.0
8.31,51.0
8.32,50.0
8.33,41.0
8.34,54.0
8.35,52.0
8.36,54.0
8.37,64.0
8.38,64.0
8.39,62.0
8.4,56.0
8.41,67.0
8.42,52.0
8.43,59.0
8.44,54.0
8.45,51.0
8.46,56.0
8.47,37.0
8.48,52.0
8.49,68.0
8.5,56.0
8.51,49.0
8.52,47.0
8.53,43.0
8.54,57.0
8.55,53.0
8.56,68.0
8.57,50.0
8.58,50.0
8.59,56.0
8.6,54.0
8.61,48.0
8.62,59.0
8.63,55.0
8.64,41.0
8.65,45.0
8.66,67.0
8.67,52.0
8.68,47.0
8.69,42.0
8.7,67.0
8.71,47.0
8.72,72.0
8.73,48.0
8.74,54.0
8.75,62.0
8.76,60.0
8.77,55.0
8.78,52.0
8.79,54.0
8.8,45.0
8.81,65.0
8.82,55.0
8.83,53.0
8.84,55.0
8.85,53.0
8.86,42.0
8.87,62.0
8.88,65.0
8.89,52.0
8.9,53.0
8.91,54.0
8.92,59.0
8.93,50.0
8.94,54.0
8.95,48.0
8.96,53.0
8.97,60.0
8.98,55.0
8.99,62.0
9.0,55.0
9.01,66.0
9.02,46.0
9.03,68.0
9.04,57.0
9.05,64.0
9.06,66.0
9.07,41.0
9.08,59.0
9.09,57.0
9.1,75.0
9.11,60.0
9.12,63.0
9.13,55.0
9.14,62.0
9.15,50.0
9.16,64.0
9.17,56.0
9.18,62.0
9.19,51.0
9.2,62.0
9.21,54.0
9.22,63.0
9.23,55.0
9.24,55.0
9.25,49.0
9.26,54.0
9.27,57.0
9.28,54.0
9.29,66.0
9.3,57.0
9.31,44.0
9.32,57.0
9.33,44.0
9.34,67.0
9.35,56.0
9.36,67.0
9.37,64.0
9.38,69.0
9.39,64.0
9.4,65.0
9.41,62.0
9.42,66.0
9.43,59.0
9.44,53.0
9.45,46.0
9.46,69.0
9.47,46.0
9.48,45.0
9.49,65.0
9.5,72.0
9.51,56.0
9.52,63.0
9.53,68.0
9.54,57.0
9.55,73.0
9.56,70.0
9.57,75.0
9.58,62.0
9.59,65.0
9.6,56.0
9.61,61.0
9.62,73.0
9.63,60.0
9.64,54.0
9.65,56.0
9.66,62.0
9.67,59.0
9.68,72.0
9.69,58.0
9.7,51.0
9.71,77.0
9.72,65.0
9.73,76.0
9.74,66.0
9.75,70.0
9.76,67.0
9.77,81.0
9.78,65.0
9.79,77.0
9.8,69.0
9.81,53.0
9.82,59.0
9.83,66.0
9.84,71.0
9.85,63.0
9.86,63.0
9.87,63.0
9.88,67.0
9.89,80.0
9.9,55.0
9.91,59.0
9.92,59.0
9.93,63.0
9.94,53.0
9.95,76.0
9.96,67.0
9.97,68.0
9.98,73.0
9.99,71.0
10.0,70.0
10.01,59.0
10.02,64.0
10.03,71.0
10.04,77.0
10.05,61.0
10.06,66.0
10.07,61.0
10.08,66.0
10.09,77.0
10.1,64.0
10.11,75.0
10.12,62.0
10.13,60.0
10.14,68.0
10.15,70.0
10.16,65.0
10.17,72.0
10.18,52.0
10.19,77.0
10.2,71.0
10.21,56.0
10.22,72.0
10.23,64.0
10.24,58.0
10.25,69.0
10.26,54.0
10.27,65.0
10.28,62.0
10.29,65.0
10.3,61.0
10.31,68.0
10.32,72.0
10.33,59.0
10.34,62.0
10.35,57.0
10.36,64.0
10.37,59.0
10.38,70.0
10.39,58.0
10.4,59.0
10.41,75.0
10.42,72.0
10.43,72.0
10.44,68.0
10.45,85.0
10.46,69.0
10.47,82.0
10.48,60.0
10.49,68.0
10.5,70.0
10.51,75.0
10.52,60.0
10.53,58.0
10.54,59.0
10.55,72.0
10.56,59.0
10.57,67.0
10.58,73.0
10.59,69.0
10.6,69.0
10.61,64.0
10.62,69.0
10.63,75.0
10.64,65.0
10.65,65.0
10.66,72.0
10.67,74.0
10.68,73.0
10.69,85.0
10.7,57.0
10.71,85.0
10.72,85.0
10.73,61.0
10.74,68.0
10.75,70.0
10.76,74.0
10.77,62.0
10.78,58.0
10.79,69.0
10.8,63.0
10.81,67.0
10.82,75.0
10.83,77.0
10.84,69.0
10.85,83.0
10.86,60.0
10.87,78.0
10.88,67.0
10.89,66.0
10.9,68.0
10.91,77.0
10.92,74.0
10.93,69.0
10.94,78.0
10.95,71.0
10.96,60.0
10.97,48.0
10.98,60.0
10.99,79.0
11.0,62.0
11.01,62.0
11.02,71.0
11.03,68.0
11.04,96.0
11.05,60.0
11.06,88.0
11.07,58.0
11.08,64.0
11.09,65.0
11.1,75.0
11.11,66.0
11.12,53.0
11.13,70.0
11.14,69.0
11.15,65.0
11.16,75.0
11.17,76.0
11.18,74.0
11.19,66.0
11.2,72.0
11.21,71.0
11.22,75.0
11.23,60.0
11.24,54.0
11.25,65.0
11.26,63.0
11.27,62.0
11.28,58.0
11.29,62.0
11.3,68.0
11.31,65.0
11.32,47.0
11.33,64.0
11.34,80.0
11.35,63.0
11.36,59.0
11.37,68.0
11.38,59.0
11.39,83.0
11.4,75.0
11.41,75.0
11.42,62.0
11.43,62.0
11.44,74.0
11.45,61.0
11.46,66.0
11.47,59.0
11.48,68.0
11.49,73.0
11.5,74.0
11.51,66.0
11.52,61.0
11.53,77.0
11.54,71.0
11.55,65.0
11.56,63.0
11.57,57.0
11.58,68.0
11.59,54.0
11.6,65.0
11.61,64.0
11.62,56.0
11.63,62.0
11.64,71.0
11.65,64.0
11.66,71.0
11.67,68.0
11.68,61.0
11.69,61.0
11.7,59.0
11.71,60.0
11.72,81.0
11.73,55.0
11.74,64.0
11.75,74.0
11.76,62.0
11.77,80.0
11.78,66.0
11.79,73.0
11.8,62.0
11.81,65.0
11.82,80.0
11.83,61.0
11.84,54.0
11.85,61.0
11.86,73.0
11.87,65.0
11.88,56.0
11.89,57.0
11.9,75.0
11.91,81.0
11.92,80.0
11.93,66.0
11.94,75.0
11.95,61.0
11.96,75.0
11.97,74.0
11.98,60.0
11.99,62.0
12.0,65.0
12.01,73.0
12.02,65.0
12.03,77.0
12.04,61.0
12.05,70.0
12.06,67.0
12.07,66.0
12.08,67.0
12.09,80.0
12.1,84.0
12.11,55.0
12.12,69.0
12.13,53.0
12.14,66.0
12.15,64.0
12.16,70.0
12.17,75.0
12.18,55.0
12.19,52.0
12.2,65.0
12.21,66.0
12.22,58.0
12.23,73.0
12.24,75.0
12.25,50.0
12.26,57.0
12.27,56.0
12.28,64.0
12.29,72.0
12.3,80.0
12.31,67.0
12.32,57.0
12.33,79.0
12.34,67.0
12.35,62.0
12.36,73.0
12.37,67.0
12.38,60.0
12.39,73.0
12.4,64.0
12.41,61.0
12.42,67.0
12.43,74.0
12.44,76.0
12.45,70.0
12.46,62.0
12.47,61.0
12.48,76.0
12.49,61.0
12.5,63.0
12.51,79.0
12.52,67.0
12.53,60.0
12.54,52.0
12.55,78.0
12.56,62.0
12.57,62.0
12.58,63.0
12.59,78.0
12.6,78.0
12.61,61.0
12.62,62.0
12.63,77.0
12.64,76.0
12.65,66.0
12.66,45.0
12.67,73.0
12.68,70.0
12.69,68.0
12.7,57.0
12.71,63.0
12.72,81.0
12.73,70.0
12.74,76.0
12.75,73.0
12.76,79.0
12.77,52.0
12.78,53.0
12.79,67.0
12.8,60.0
12.81,78.0
12.82,62.0
12.83,68.0
12.84,70.0
12.85,82.0
12.86,53.0
12.87,82.0
12.88,90.0
12.89,62.0
12.9,81.0
12.91,60.0
12.92,61.0
12.93,60.0
12.94,60.0
12.95,71.0
12.96,57.0
12.97,77.0
12.98,65.0
12.99,55.0
13.0,83.0
13.01,55.0
13.02,65.0
13.03,69.0
13.04,58.0
13.05,73.0
13.06,59.0
13.07,62.0
13.08,70.0
13.09,69.0
13.1,62.0
13.11,68.0
13.12,71.0
13.13,62.0
13.14,70.0
13.15,62.0
13.16,61.0
13.17,66.0
13.18,65.0
13.19,56.0
13.2,50.0
13.21,72.0
13.22,80.0
13.23,65.0
13.24,70.0
13.25,62.0
13.26,62.0
13.27,55.0
13.28,60.0
13.29,65.0
13.3,75.0
13.31,70.0
13.32,85.0
13.33,79.0
13.34,80.0
13.35,69.0
13.36,55.0
13.37,82.0
13.38,67.0
13.39,67.0
13.4,53.0
13.41,67.0
13.42,60.0
13.43,67.0
13.44,80.0
13.45,68.0
13.46,79.0
13.47,61.0
13.48,64.0
13.49,67.0
13.5,73.0
13.51,62.0
13.52,70.0
13.53,58.0
13.54,71.0
13.55,68.0
13.56,66.0
13.57,76.0
13.58,58.0
13.59,58.0
13.6,71.0
13.61,69.0
13.62,59.0
13.63,72.0
13.64,74.0
13.65,66.0
13.66,63.0
13.67,53.0
13.68,71.0
13.69,52.0
13.7,71.0
13.71,73.0
13.72,71.0
13.73,73.0
13.74,78.0
13.75,65.0
13.76,76.0
13.77,72.0
13.78,63.0
13.79,66.0
13.8,81.0
13.81,77.0
13.82,68.0
13.83,67.0
13.84,76.0
13.85,72.0
13.86,72.0
13.87,68.0
13.88,65.0
13.89,68.0
13.9,69.0
13.91,63.0
13.92,74.0
13.93,72.0
13.94,66.0
13.95,76.0
13.96,72.0
13.97,69.0
13.98,71.0
13.99,56.0
14.0,73.0
14.01,73.0
14.02,69.0
14.03,72.0
14.04,74.0
14.05,81.0
14.06,72.0
14.07,77.0
14.08,64.0
14.09,81.0
14.1,84.0
14.11,67.0
14.12,75.0
14.13,68.0
14.14,74.0
14.15,62.0
14.16,61.0
14.17,85.0
14.18,71.0
14.19,44.0
14.2,52.0
14.21,72.0
14.22,56.0
14.23,74.0
14.24,58.0
14.25,56.0
14.26,74.0
14.27,80.0
14.28,61.0
14.29,80.0
14.3,71.0
14.31,76.0
14.32,74.0
14.33,63.0
14.34,74.0
14.35,68.0
14.36,71.0
14.37,67.0
14.38,84.0
14.39,67.0
14.4,72.0
14.41,55.0
14.42,73.0
14.43,63.0
14.44,57.0
14.45,72.0
14.46,62.0
14.47,69.0
14.48,72.0
14.49,79.0
14.5,70.0
14.51,68.0
14.52,74.0
14.53,44.0
14.54,60.0
14.55,64.0
14.56,64.0
14.57,53.0
14.58,54.0
14.59,57.0
14.6,62.0
14.61,73.0
14.62,61.0
14.63,78.0
14.64,76.0
14.65,62.0
14.66,69.0
14.67,72.0
14.68,52.0
14.69,69.0
14.7,72.0
14.71,61.0
14.72,61.0
14.73,49.0
14.74,67.0
14.75,77.0
14.76,66.0
14.77,72.0
14.78,45.0
14.79,67.0
14.8,76.0
14.81,72.0
14.82,57.0
14.83,69.0
14.84,58.0
14.85,63.0
14.86,59.0
14.87,58.0
14.88,61.0
14.89,61.0
14.9,82.0
14.91,70.0
14.92,69.0
14.93,69.0
14.94,51.0
14.95,68.0
14.96,64.0
14.97,61.0
14.98,70.0
14.99,43.0
15.0,66.0
15.01,73.0
15.02,68.0
15.03,65.0
15.04,59.0
15.05,53.0
15.06,68.0
15.07,64.0
15.08,68.0
15.09,63.0
15.1,53.0
15.11,62.0
15.12,65.0
15.13,75.0
15.14,63.0
15.15,71.0
15.16,64.0
15.17,74.0
15.18,66.0
15.19,74.0
15.2,70.0
15.21,62.0
15.22,73.0
15.23,57.0
15.24,56.0
15.25,55.0
15.26,53.0
15.27,58.0
15.28,69.0
15.29,76.0
15.3,52.0
15.31,64.0
15.32,66.0
15.33,66.0
15.34,69.0
15.35,71.0
15.36,57.0
15.37,65.0
15.38,69.0
15.39,54.0
15.4,66.0
15.41,77.0
15.42,49.0
15.43,70.0
15.44,73.0
15.45,60.0
15.46,71.0
15.47,66.0
15.48,66.0
15.49,71.0
15.5,58.0
15.51,64.0
15.52,61.0
15.53,77.0
15.54,57.0
15.55,57.0
15.56,55.0
15.57,54.0
15.58,72.0
15.59,64.0
15.6,62.0
15.61,66.0
15.62,71.0
15.63,61.0
15.64,82.0
15.65,62.0
15.66,65.0
15.67,70.0
15.68,65.0
15.69,72.0
15.7,68.0
15.71,70.0
15.72,67.0
15.73,67.0
15.74,58.0
15.75,67.0
15.76,56.0
15.77,61.0
15.78,64.0
15.79,78.0
15.8,76.0
15.81,47.0
15.82,68.0
15.83,58.0
15.84,65.0
15.85,58.0
15.86,80.0
15.87,50.0
15.88,69.0
15.89,71.0
15.9,60.0
15.91,56.0
15.92,48.0
15.93,72.0
15.94,76.0
15.95,75.0
15.96,79.0
15.97,79.0
15.98,61.0
15.99,60.0
16.0,67.0
16.01,69.0
16.02,84.0
16.03,68.0
16.04,61.0
16.05,54.0
16.06,73.0
16.07,61.0
16.08,68.0
16.09,75.0
16.1,61.0
16.11,61.0
16.12,75.0
16.13,85.0
16.14,65.0
16.15,67.0
16.16,85.0
16.17,65.0
16.18,67.0
16.19,80.0
16.2,67.0
16.21,60.0
16.22,61.0
16.23,59.0
16.24,65.0
16.25,61.0
16.26,62.0
16.27,72.0
16.28,73.0
16.29,61.0
16.3,63.0
16.31,63.0
16.32,64.0
16.33,75.0
16.34,51.0
16.35,80.0
16.36,64.0
16.37,66.0
16.38,66.0
16.39,84.0
16.4,72.0
16.41,75.0
16.42,62.0
16.43,52.0
16.44,75.0
16.45,67.0
16.46,75.0
16.47,64.0
16.48,64.0
16.49,56.0
16.5,65.0
16.51,72.0
16.52,59.0
16.53,69.0
16.54,71.0
16.55,67.0
16.56,71.0
16.57,58.0
16.58,64.0
16.59,77.0
16.6,48.0
16.61,66.0
16.62,60.0
16.63,75.0
16.64,49.0
16.65,56.0
16.66,61.0
16.67,58.0
16.68,57.0
16.69,68.0
16.7,65.0
16.71,65.0
16.72,68.0
16.73,61.0
16.74,49.0
16.75,69.0
16.76,73.0
16.77,76.0
16.78,69.0
16.79,72.0
16.8,68.0
16.81,70.0
16.82,61.0
16.83,70.0
16.84,54.0
16.85,79.0
16.86,66.0
16.87,64.0
16.88,68.0
16.89,70.0
16.9,90.0
16.91,55.0
16.92,51.0
16.93,83.0
16.94,66.0
16.95,67.0
16.96,53.0
16.97,74.0
16.98,73.0
16.99,72.0
17.0,66.0
17.01,72.0
17.02,66.0
17.03,60.0
17.04,64.0
17.05,69.0
17.06,50.0
17.07,57.0
17.08,67.0
17.09,65.0
17.1,70.0
17.11,59.0
17.12,64.0
17.13,75.0
17.14,68.0
17.15,70.0
17.16,60.0
17.17,57.0
17.18,67.0
17.19,60.0
17.2,64.0
17.21,61.0
17.22,66.0
17.23,59.0
17.24,67.0
17.25,62.0
17.26,64.0
17.27,63.0
17.28,57.0
17.29,75.0
17.3,66.0
17.31,52.0
17.32,54.0
17.33,57.0
17.34,69.0
17.35,77.0
17.36,66.0
17.37,62.0
17.38,82.0
17.39,64.0
17.4,60.0
17.41,70.0
17.42,82.0
17.43,88.0
17.44,68.0
17.45,64.0
17.46,67.0
17.47,59.0
17.48,66.0
17.49,75.0
17.5,49.0
17.51,86.0
17.52,57.0
17.53,75.0
17.54,63.0
17.55,61.0
17.56,66.0
17.57,78.0
17.58,69.0
17.59,56.0
17.6,50.0
17.61,79.0
17.62,56.0
17.63,66.0
17.64,83.0
17.65,83.0
17.66,77.0
17.67,65.0
17.68,61.0
17.69,60.0
17.7,62.0
17.71,63.0
17.72,64.0
17.73,56.0
17.74,67.0
17.75,76.0
17.76,69.0
17.77,62.0
17.78,72.0
17.79,79.0
17.8,58.0
17.81,53.0
17.82,64.0
17.83,70.0
17.84,56.0
17.85,57.0
17.86,74.0
17.87,62.0
17.88,71.0
17.89,69.0
17.9,71.0
17.91,61.0
17.92,68.0
17.93,64.0
17.94,68.0
17.95,77.0
17.96,65.0
17.97,76.0
17.98,64.0
17.99,68.0
18.0,65.0
18.01,66.0
18.02,58.0
18.03,40.0
18.04,66.0
18.05,69.0
18.06,69.0
18.07,89.0
18.08,66.0
18.09,55.0
18.1,65.0
18.11,69.0
18.12,75.0
18.13,61.0
18.14,70.0
18.15,77.0
18.16,62.0
18.17,62.0
18.18,63.0
18.19,62.0
18.2,79.0
18.21,69.0
18.22,62.0
18.23,61.0
18.24,67.0
18.25,62.0
18.26,64.0
18.27,75.0
18.28,49.0
18.29,76.0
18.3,61.0
18.31,72.0
18.32,76.0
18.33,66.0
18.34,65.0
18.35,73.0
18.36,67.0
18.37,66.0
18.38,75.0
18.39,71.0
18.4,68.0
18.41,60.0
18.42,72.0
18.43,66.0
18.44,72.0
18.45,69.0
18.46,59.0
18.47,61.0
18.48,69.0
18.49,72.0
18.5,72.0
18.51,77.0
18.52,66.0
18.53,71.0
18.54,56.0
18.55,69.0
18.56,77.0
18.57,65.0
18.58,71.0
18.59,78.0
18.6,71.0
18.61,66.0
18.62,87.0
18.63,64.0
18.64,71.0
18.65,62.0
18.66,74.0
18.67,64.0
18.68,65.0
18.69,76.0
18.7,58.0
18.71,75.0
18.72,58.0
18.73,73.0
18.74,70.0
18.75,73.0
18.76,56.0
18.77,65.0
18.78,61.0
18.79,67.0
18.8,80.0
18.81,58.0
18.82,69.0
18.83,58.0
18.84,76.0
18.85,80.0
18.86,64.0
18.87,64.0
18.88,78.0
18.89,71.0
18.9,72.0
18.91,59.0
18.92,69.0
18.93,57.0
18.94,65.0
18.95,60.0
18.96,66.0
18.97,62.0
18.98,63.0
18.99,95.0
19.0,68.0
19.01,63.0
19.02,61.0
19.03,62.0
19.04,67.0
19.05,81.0
19.06,73.0
19.07,73.0
19.08,73.0
19.09,70.0
19.1,69.0
19.11,61.0
19.12,62.0
19.13,47.0
19.14,66.0
19.15,60.0
19.16,63.0
19.17,67.0
19.18,75.0
19.19,56.0
19.2,69.0
19.21,59.0
19.22,71.0
19.23,60.0
19.24,62.0
19.25,60.0
19.26,63.0
19.27,63.0
19.28,65.0
19.29,85.0
19.3,74.0
19.31,75.0
19.32,76.0
19.33,62.0
19.34,60.0
19.35,53.0
19.36,65.0
19.37,59.0
19.38,66.0
19.39,87.0
19.4,72.0
19.41,77.0
19.42,55.0
19.43,67.0
19.44,70.0
19.45,68.0
19.46,82.0
19.47,49.0
19.48,78.0
19.49,53.0
19.5,70.0
19.51,60.0
19.52,58.0
19.53,63.0
19.54,70.0
19.55,57.0
19.56,74.0
19.57,68.0
19.58,54.0
19.59,67.0
19.6,68.0
19.61,67.0
19.62,79.0
19.63,67.0
19.64,71.0
19.65,57.0
19.66,62.0
19.67,65.0
19.68,70.0
19.69,69.0
19.7,58.0
19.71,66.0
19.72,65.0
19.73,66.0
19.74,60.0
19.75,79.0
19.76,73.0
19.77,56.0
19.78,62.0
19.79,75.0
19.8,66.0
19.81,77.0
19.82,72.0
19.83,70.0
19.84,63.0
19.85,64.0
19.86,63.0
19.87,61.0
19.88,53.0
19.89,69.0
19.9,71.0
19.91,45.0
19.92,72.0
19.93,64.0
19.94,59.0
19.95,70.0
19.96,67.0
19.97,61.0
19.98,71.0
19.99,65.0
20.0,53.0
20.01,69.0
20.02,80.0
20.03,65.0
20.04,59.0
20.05,59.0
20.06,56.0
20.07,63.0
20.08,85.0
20.09,68.0
20.1,62.0
20.11,62.0
20.12,55.0
20.13,59.0
20.14,65.0
20.15,59.0
20.16,58.0
20.17,64.0
20.18,64.0
20.19,68.0
20.2,76.0
20.21,66.0
20.22,77.0
20.23,55.0
20.24,69.0
20.25,78.0
20.26,52.0
20.27,62.0
20.28,51.0
20.29,74.0
20.3,53.0
20.31,69.0
20.32,63.0
20.33,65.0
20.34,63.0
20.35,74.0
20.36,66.0
20.37,48.0
20.38,72.0
20.39,72.0
20.4,69.0
20.41,56.0
20.42,79.0
20.43,72.0
20.44,62.0
20.45,61.0
20.46,71.0
20.47,76.0
20.48,67.0
20.49,61.0
20.5,64.0
20.51,63.0
20.52,79.0
20.53,67.0
20.54,54.0
20.55,69.0
20.56,74.0
20.57,64.0
20.58,67.0
20.59,69.0
20.6,70.0
20.61,63.0
20.62,58.0
20.63,59.0
20.64,77.0
20.65,68.0
20.66,59.0
20.67,55.0
20.68,73.0
20.69,76.0
20.7,58.0
20.71,61.0
20.72,74.0
20.73,67.0
20.74,63.0
20.75,67.0
20.76,63.0
20.77,69.0
20.78,80.0
20.79,60.0
20.8,75.0
20.81,63.0
20.82,83.0
20.83,57.0
20.84,63.0
20.85,71.0
20.86,57.0
20.87,59.0
20.88,53.0
20.89,70.0
20.9,56.0
20.91,72.0
20.92,71.0
20.93,64.0
20.94,57.0
20.95,65.0
20.96,65.0
20.97,67.0
20.98,55.0
20.99,69.0
21.0,60.0
21.01,74.0
21.02,52.0
21.03,74.0
21.04,72.0
21.05,58.0
21.06,65.0
21.07,68.0
21.08,61.0
21.09,74.0
21.1,62.0
21.11,72.0
21.12,67.0
21.13,58.0
21.14,73.0
21.15,68.0
21.16,72.0
21.17,63.0
21.18,64.0
21.19,78.0
21.2,66.0
21.21,73.0
21.22,75.0
21.23,61.0
21.24,59.0
21.25,60.0
21.26,71.0
21.27,68.0
21.28,71.0
21.29,65.0
21.3,74.0
21.31,58.0
21.32,74.0
21.33,68.0
21.34,68.0
21.35,67.0
21.36,72.0
21.37,68.0
21.38,74.0
21.39,64.0
21.4,50.0
21.41,68.0
21.42,65.0
21.43,65.0
21.44,74.0
21.45,62.0
21.46,65.0
21.47,61.0
21.48,75.0
21.49,65.0
21.5,78.0
21.51,48.0
21.52,59.0
21.53,64.0
21.54,56.0
21.55,62.0
21.56,79.0
21.57,77.0
21.58,70.0
21.59,79.0
21.6,59.0
21.61,63.0
21.62,77.0
21.63,61.0
21.64,71.0
21.65,62.0
21.66,64.0
21.67,61.0
21.68,57.0
21.69,70.0
21.7,84.0
21.71,62.0
21.72,60.0
21.73,55.0
21.74,74.0
21.75,53.0
21.76,58.0
21.77,78.0
21.78,77.0
21.79,72.0
21.8,66.0
21.81,78.0
21.82,71.0
21.83,77.0
21.84,84.0
21.85,92.0
21.86,71.0
21.87,72.0
21.88,62.0
21.89,82.0
21.9,71.0
21.91,78.0
21.92,73.0
21.93,74.0
21.94,68.0
21.95,86.0
21.96,79.0
21.97,69.0
21.98,75.0
21.99,69.0
22.0,73.0
22.01,61.0
22.02,71.0
22.03,74.0
22.04,62.0
22.05,76.0
22.06,70.0
22.07,66.0
22.08,67.0
22.09,75.0
22.1,72.0
22.11,72.0
22.12,59.0
22.13,62.0
22.14,75.0
22.15,75.0
22.16,78.0
22.17,66.0
22.18,68.0
22.19,67.0
22.2,60.0
22.21,66.0
22.22,64.0
22.23,81.0
22.24,69.0
22.25,57.0
22.26,63.0
22.27,68.0
22.28,55.0
22.29,66.0
22.3,91.0
22.31,62.0
22.32,64.0
22.33,74.0
22.34,72.0
22.35,65.0
22.36,60.0
22.37,59.0
22.38,51.0
22.39,70.0
22.4,69.0
22.41,61.0
22.42,64.0
22.43,77.0
22.44,63.0
22.45,57.0
22.46,75.0
22.47,63.0
22.48,74.0
22.49,57.0
22.5,61.0
22.51,72.0
22.52,67.0
22.53,57.0
22.54,69.0
22.55,68.0
22.56,53.0
22.57,50.0
22.58,63.0
22.59,66.0
22.6,61.0
22.61,64.0
22.62,84.0
22.63,59.0
22.64,83.0
22.65,75.0
22.66,60.0
22.67,73.0
22.68,68.0
22.69,68.0
22.7,75.0
22.71,72.0
22.72,72.0
22.73,69.0
22.74,74.0
22.75,77.0
22.76,61.0
22.77,73.0
22.78,91.0
22.79,63.0
22.8,62.0
22.81,64.0
22.82,62.0
22.83,69.0
22.84,76.0
22.85,70.0
22.86,76.0
22.87,67.0
22.88,78.0
22.89,72.0
22.9,66.0
22.91,52.0
22.92,69.0
22.93,62.0
22.94,57.0
22.95,57.0
22.96,49.0
22.97,64.0
22.98,67.0
22.99,89.0
23.0,51.0
23.01,70.0
23.02,59.0
23.03,84.0
23.04,53.0
23.05,71.0
23.06,78.0
23.07,62.0
23.08,82.0
23.09,63.0
23.1,62.0
23.11,80.0
23.12,74.0
23.13,65.0
23.14,64.0
23.15,65.0
23.16,76.0
23.17,72.0
23.18,63.0
23.19,75.0
23.2,61.0
23.21,67.0
23.22,74.0
23.23,72.0
23.24,61.0
23.25,65.0
23.26,59.0
23.27,69.0
23.28,79.0
23.29,47.0
23.3,72.0
23.31,64.0
23.32,67.0
23.33,64.0
23.34,71.0
23.35,72.0
23.36,57.0
23.37,74.0
23.38,74.0
23.39,69.0
23.4,73.0
23.41,67.0
23.42,59.0
23.43,66.0
23.44,66.0
23.45,55.0
23.46,72.0
23.47,82.0
23.48,77.0
23.49,71.0
23.5,55.0
23.51,67.0
23.52,68.0
23.53,55.0
23.54,57.0
23.55,68.0
23.56,62.0
23.57,73.0
23.58,77.0
23.59,62.0
23.6,63.0
23.61,79.0
23.62,61.0
23.63,73.0
23.64,73.0
23.65,68.0
23.66,77.0
23.67,61.0
23.68,70.0
23.69,67.0
23.7,78.0
23.71,67.0
23.72,58.0
23.73,47.0
23.74,77.0
23.75,66.0
23.76,82.0
23.77,67.0
23.78,72.0
23.79,61.0
23.8,60.0
23.81,71.0
23.82,65.0
23.83,81.0
23.84,82.0
23.85,67.0
23.86,69.0
23.87,60.0
23.88,70.0
23.89,57.0
23.9,59.0
23.91,73.0
23.92,78.0
23.93,64.0
23.94,69.0
23.95,82.0
23.96,75.0
23.97,78.0
23.98,62.0
23.99,73.0
24.0,47.0
24.01,80.0
24.02,88.0
24.03,84.0
24.04,66.0
24.05,75.0
24.06,67.0
24.07,67.0
24.08,69.0
24.09,75.0
24.1,85.0
24.11,84.0
24.12,62.0
24.13,68.0
24.14,65.0
24.15,60.0
24.16,84.0
24.17,65.0
24.18,79.0
24.19,70.0
24.2,63.0
24.21,67.0
24.22,76.0
24.23,77.0
24.24,77.0
24.25,70.0
24.26,70.0
24.27,69.0
24.28,60.0
24.29,69.0
24.3,60.0
24.31,75.0
24.32,56.0
24.33,70.0
24.34,68.0
24.35,79.0
24.36,75.0
24.37,73.0
24.38,71.0
24.39,70.0
24.4,92.0
24.41,80.0
24.42,73.0
24.43,72.0
24.44,77.0
24.45,63.0
24.46,68.0
24.47,68.0
24.48,71.0
24.49,77.0
24.5,68.0
24.51,58.0
24.52,71.0
24.53,60.0
24.54,62.0
24.55,62.0
24.56,70.0
24.57,67.0
24.58,61.0
24.59,71.0
24.6,72.0
24.61,63.0
24.62,60.0
24.63,61.0
24.64,69.0
24.65,78.0
24.66,75.0
24.67,73.0
24.68,74.0
24.69,77.0
24.7,60.0
24.71,73.0
24.72,62.0
24.73,66.0
24.74,73.0
24.75,52.0
24.76,64.0
24.77,61.0
24.78,69.0
24.79,63.0
24.8,56.0
24.81,69.0
24.82,78.0
24.83,59.0
24.84,80.0
24.85,66.0
24.86,72.0
24.87,73.0
24.88,71.0
24.89,57.0
24.9,62.0
24.91,72.0
24.92,83.0
24.93,62.0
24.94,75.0
24.95,61.0
24.96,63.0
24.97,76.0
24.98,64.0
24.99,80.0
25.0,79.0
25.01,69.0
25.02,58.0
25.03,74.0
25.04,61.0
25.05,73.0
25.06,65.0
25.07,71.0
25.08,61.0
25.09,73.0
25.1,58.0
25.11,64.0
25.12,78.0
25.13,69.0
25.14,65.0
25.15,77.0
25.16,70.0
25.17,72.0
25.18,71.0
25.19,81.0
25.2,76.0
25.21,70.0
25.22,83.0
25.23,64.0
25.24,69.0
25.25,58.0
25.26,69.0
25.27,60.0
25.28,83.0
25.29,62.0
25.3,68.0
25.31,78.0
25.32,85.0
25.33,74.0
25.34,84.0
25.35,73.0
25.36,52.0
25.37,66.0
25.38,53.0
25.39,75.0
25.4,63.0
25.41,76.0
25.42,67.0
25.43,76.0
25.44,84.0
25.45,68.0
25.46,63.0
25.47,93.0
25.48,58.0
25.49,70.0
25.5,73.0
25.51,81.0
25.52,86.0
25.53,88.0
25.54,77.0
25.55,76.0
25.56,67.0
25.57,84.0
25.58,76.0
25.59,78.0
25.6,74.0
25.61,60.0
25.62,77.0
25.63,67.0
25.64,68.0
25.65,56.0
25.66,64.0
25.67,64.0
25.68,65.0
25.69,67.0
25.7,58.0
25.71,85.0
25.72,71.0
25.73,81.0
25.74,77.0
25.75,59.0
25.76,76.0
25.77,65.0
25.78,73.0
25.79,73.0
25.8,77.0
25.81,66.0
25.82,56.0
25.83,57.0
25.84,69.0
25.85,76.0
25.86,82.0
25.87,59.0
25.88,73.0
25.89,65.0
25.9,62.0
25.91,76.0
25.92,73.0
25.93,80.0
25.94,77.0
25.95,73.0
25.96,65.0
25.97,70.0
25.98,62.0
25.99,64.0
26.0,82.0
26.01,83.0
26.02,72.0
26.03,83.0
26.04,67.0
26.05,95.0
26.06,60.0
26.07,66.0
26.08,67.0
26.09,79.0
26.1,64.0
26.11,63.0
26.12,88.0
26.13,83.0
26.14,84.0
26.15,78.0
26.16,74.0
26.17,69.0
26.18,70.0
26.19,63.0
26.2,57.0
26.21,75.0
26.22,76.0
26.23,69.0
26.24,71.0
26.25,74.0
26.26,73.0
26.27,65.0
26.28,77.0
26.29,71.0
26.3,80.0
26.31,74.0
26.32,78.0
26.33,81.0
26.34,77.0
26.35,62.0
26.36,63.0
26.37,73.0
26.38,70.0
26.39,62.0
26.4,56.0
26.41,83.0
26.42,79.0
26.43,86.0
26.44,77.0
26.45,68.0
26.46,62.0
26.47,76.0
26.48,78.0
26.49,66.0
26.5,55.0
26.51,74.0
26.52,72.0
26.53,61.0
26.54,78.0
26.55,79.0
26.56,90.0
26.57,72.0
26.58,80.0
26.59,77.0
26.6,68.0
26.61,83.0
26.62,81.0
26.63,75.0
26.64,69.0
26.65,81.0
26.66,74.0
26.67,73.0
26.68,90.0
26.69,80.0
26.7,87.0
26.71,103.0
26.72,107.0
26.73,88.0
26.74,86.0
26.75,72.0
26.76,88.0
26.77,84.0
26.78,82.0
26.79,103.0
26.8,83.0
26.81,87.0
26.82,101.0
26.83,82.0
26.84,68.0
26.85,91.0
26.86,82.0
26.87,84.0
26.88,88.0
26.89,92.0
26.9,75.0
26.91,86.0
26.92,95.0
26.93,89.0
26.94,97.0
26.95,100.0
26.96,95.0
26.97,93.0
26.98,101.0
26.99,117.0
27.0,117.0
27.01,116.0
27.02,107.0
27.03,131.0
27.04,110.0
27.05,117.0
27.06,132.0
27.07,131.0
27.08,134.0
27.09,120.0
27.1,121.0
27.11,113.0
27.12,104.0
27.13,96.0
27.14,102.0
27.15,120.0
27.16,96.0
27.17,115.0
27.18,120.0
27.19,91.0
27.2,102.0
27.21,91.0
27.22,89.0
27.23,109.0
27.24,80.0
27.25,99.0
27.26,97.0
27.27,114.0
27.28,94.0
27.29,82.0
27.3,97.0
27.31,82.0
27.32,87.0
27.33,86.0
27.34,96.0
27.35,83.0
27.36,86.0
27.37,97.0
27.38,87.0
27.39,98.0
27.4,94.0
27.41,78.0
27.42,91.0
27.43,82.0
27.44,73.0
27.45,82.0
27.46,101.0
27.47,83.0
27.48,79.0
27.49,83.0
27.5,81.0
27.51,95.0
27.52,82.0
27.53,81.0
27.54,105.0
27.55,81.0
27.56,84.0
27.57,88.0
27.58,75.0
27.59,72.0
27.6,71.0
27.61,68.0
27.62,87.0
27.63,72.0
27.64,64.0
27.65,77.0
27.66,79.0
27.67,73.0
27.68,78.0
27.69,72.0
27.7,95.0
27.71,66.0
27.72,72.0
27.73,84.0
27.74,100.0
27.75,89.0
27.76,86.0
27.77,91.0
27.78,79.0
27.79,77.0
27.8,80.0
27.81,100.0
27.82,76.0
27.83,74.0
27.84,78.0
27.85,83.0
27.86,67.0
27.87,77.0
27.88,95.0
27.89,75.0
27.9,82.0
27.91,80.0
27.92,86.0
27.93,73.0
27.94,65.0
27.95,79.0
27.96,80.0
27.97,86.0
27.98,61.0
27.99,65.0
28.0,76.0
28.01,86.0
28.02,82.0
28.03,93.0
28.04,87.0
28.05,98.0
28.06,79.0
28.07,92.0
28.08,90.0
28.09,89.0
28.1,83.0
28.11,95.0
28.12,106.0
28.13,98.0
28.14,90.0
28.15,87.0
28.16,105.0
28.17,100.0
28.18,118.0
28.19,116.0
28.2,120.0
28.21,110.0
28.22,114.0
28.23,117.0
28.24,128.0
28.25,147.0
28.26,158.0
28.27,148.0
28.28,137.0
28.29,159.0
28.3,157.0
28.31,146.0
28.32,165.0
28.33,149.0
28.34,148.0
28.35,167.0
28.36,141.0
28.37,146.0
28.38,149.0
28.39,136.0
28.4,124.0
28.41,133.0
28.42,116.0
28.43,131.0
28.44,116.0
28.45,114.0
28.46,118.0
28.47,119.0
28.48,110.0
28.49,95.0
28.5,126.0
28.51,99.0
28.52,103.0
28.53,100.0
28.54,114.0
28.55,132.0
28.56,96.0
28.57,113.0
28.58,94.0
28.59,104.0
28.6,87.0
28.61,96.0
28.62,88.0
28.63,83.0
28.64,86.0
28.65,104.0
28.66,95.0
28.67,99.0
28.68,90.0
28.69,94.0
28.7,75.0
28.71,73.0
28.72,77.0
28.73,83.0
28.74,95.0
28.75,79.0
28.76,81.0
28.77,96.0
28.78,93.0
28.79,85.0
28.8,83.0
28.81,86.0
28.82,91.0
28.83,101.0
28.84,90.0
28.85,70.0
28.86,89.0
28.87,69.0
28.88,91.0
28.89,75.0
28.9,76.0
28.91,57.0
28.92,84.0
28.93,84.0
28.94,96.0
28.95,77.0
28.96,73.0
28.97,78.0
28.98,79.0
28.99,74.0
29.0,72.0
29.01,87.0
29.02,77.0
29.03,86.0
29.04,78.0
29.05,66.0
29.06,64.0
29.07,86.0
29.08,79.0
29.09,74.0
29.1,82.0
29.11,78.0
29.12,73.0
29.13,79.0
29.14,82.0
29.15,74.0
29.16,86.0
29.17,85.0
29.18,72.0
29.19,84.0
29.2,71.0
29.21,64.0
29.22,70.0
29.23,86.0
29.24,58.0
29.25,80.0
29.26,82.0
29.27,69.0
29.28,77.0
29.29,84.0
29.3,97.0
29.31,74.0
29.32,88.0
29.33,83.0
29.34,80.0
29.35,94.0
29.36,83.0
29.37,83.0
29.38,88.0
29.39,77.0
29.4,91.0
29.41,74.0
29.42,83.0
29.43,81.0
29.44,89.0
29.45,99.0
29.46,99.0
29.47,78.0
29.48,92.0
29.49,89.0
29.5,91.0
29.51,90.0
29.52,114.0
29.53,88.0
29.54,101.0
29.55,89.0
29.56,74.0
29.57,82.0
29.58,83.0
29.59,88.0
29.6,80.0
29.61,72.0
29.62,85.0
29.63,85.0
29.64,81.0
29.65,80.0
29.66,79.0
29.67,86.0
29.68,75.0
29.69,77.0
29.7,83.0
29.71,82.0
29.72,84.0
29.73,71.0
29.74,81.0
29.75,75.0
29.76,72.0
29.77,76.0
29.78,81.0
29.79,75.0
29.8,83.0
29.81,78.0
29.82,79.0
29.83,74.0
29.84,85.0
29.85,69.0
29.86,68.0
29.87,84.0
29.88,82.0
29.89,89.0
29.9,58.0
29.91,68.0
29.92,82.0
29.93,74.0
29.94,84.0
29.95,78.0
29.96,78.0
29.97,87.0
29.98,69.0
29.99,76.0
30.0,81.0
30.01,87.0
30.02,72.0
30.03,84.0
30.04,71.0
30.05,97.0
30.06,91.0
30.07,83.0
30.08,65.0
30.09,71.0
30.1,69.0
30.11,82.0
30.12,76.0
30.13,70.0
30.14,67.0
30.15,65.0
30.16,66.0
30.17,64.0
30.18,85.0
30.19,75.0
30.2,67.0
30.21,89.0
30.22,77.0
30.23,66.0
30.24,74.0
30.25,68.0
30.26,78.0
30.27,63.0
30.28,57.0
30.29,76.0
30.3,70.0
30.31,86.0
30.32,70.0
30.33,60.0
30.34,81.0
30.35,84.0
30.36,79.0
30.37,62.0
30.38,61.0
30.39,85.0
30.4,80.0
30.41,95.0
30.42,67.0
30.43,77.0
30.44,65.0
30.45,71.0
30.46,84.0
30.47,87.0
30.48,59.0
30.49,64.0
30.5,51.0
30.51,72.0
30.52,68.0
30.53,80.0
30.54,79.0
30.55,83.0
30.56,81.0
30.57,71.0
30.58,92.0
30.59,70.0
30.6,82.0
30.61,80.0
30.62,68.0
30.63,75.0
30.64,58.0
30.65,78.0
30.66,69.0
30.67,72.0
30.68,79.0
30.69,94.0
30.7,74.0
30.71,75.0
30.72,63.0
30.73,64.0
30.74,77.0
30.75,84.0
30.76,74.0
30.77,75.0
30.78,83.0
30.79,77.0
30.8,87.0
30.81,82.0
30.82,89.0
30.83,78.0
30.84,83.0
30.85,60.0
30.86,70.0
30.87,79.0
30.88,84.0
30.89,78.0
30.9,76.0
30.91,96.0
30.92,67.0
30.93,89.0
30.94,81.0
30.95,79.0
30.96,81.0
30.97,95.0
30.98,72.0
30.99,80.0
31.0,74.0
31.01,78.0
31.02,76.0
31.03,74.0
31.04,82.0
31.05,55.0
31.06,74.0
31.07,85.0
31.08,82.0
31.09,77.0
31.1,90.0
31.11,73.0
31.12,86.0
31.13,75.0
31.14,74.0
31.15,84.0
31.16,97.0
31.17,84.0
31.18,72.0
31.19,66.0
31.2,66.0
31.21,84.0
31.22,70.0
31.23,57.0
31.24,70.0
31.25,86.0
31.26,70.0
31.27,81.0
31.28,76.0
31.29,91.0
31.3,82.0
31.31,70.0
31.32,82.0
31.33,77.0
31.34,97.0
31.35,84.0
31.36,78.0
31.37,71.0
31.38,67.0
31.39,74.0
31.4,85.0
31.41,87.0
31.42,81.0
31.43,95.0
31.44,87.0
31.45,70.0
31.46,70.0
31.47,65.0
31.48,75.0
31.49,78.0
31.5,87.0
31.51,74.0
31.52,81.0
31.53,72.0
31.54,103.0
31.55,81.0
31.56,85.0
31.57,74.0
31.58,75.0
31.59,82.0
31.6,63.0
31.61,85.0
31.62,69.0
31.63,80.0
31.64,75.0
31.65,84.0
31.66,66.0
31.67,76.0
31.68,72.0
31.69,81.0
31.7,88.0
31.71,71.0
31.72,84.0
31.73,81.0
31.74,91.0
31.75,77.0
31.76,88.0
31.77,102.0
31.78,63.0
31.79,76.0
31.8,89.0
31.81,88.0
31.82,95.0
31.83,71.0
31.84,95.0
31.85,95.0
31.86,86.0
31.87,85.0
31.88,104.0
31.89,84.0
31.9,81.0
31.91,93.0
31.92,92.0
31.93,108.0
31.94,108.0
31.95,88.0
31.96,100.0
31.97,107.0
31.98,101.0
31.99,101.0
32.0,93.0
32.01,98.0
32.02,103.0
32.03,85.0
32.04,94.0
32.05,107.0
32.06,98.0
32.07,87.0
32.08,90.0
32.09,80.0
32.1,91.0
32.11,95.0
32.12,85.0
32.13,91.0
32.14,88.0
32.15,93.0
32.16,98.0
32.17,79.0
32.18,82.0
32.19,86.0
32.2,69.0
32.21,88.0
32.22,75.0
32.23,73.0
32.24,85.0
32.25,95.0
32.26,84.0
32.27,80.0
32.28,76.0
32.29,104.0
32.3,82.0
32.31,91.0
32.32,75.0
32.33,85.0
32.34,82.0
32.35,82.0
32.36,87.0
32.37,78.0
32.38,101.0
32.39,99.0
32.4,77.0
32.41,94.0
32.42,84.0
32.43,89.0
32.44,94.0
32.45,96.0
32.46,86.0
32.47,85.0
32.48,82.0
32.49,89.0
32.5,91.0
32.51,104.0
32.52,97.0
32.53,99.0
32.54,95.0
32.55,93.0
32.56,93.0
32.57,91.0
32.58,109.0
32.59,93.0
32.6,104.0
32.61,105.0
32.62,111.0
32.63,107.0
32.64,123.0
32.65,115.0
32.66,94.0
32.67,111.0
32.68,120.0
32.69,122.0
32.7,134.0
32.71,117.0
32.72,116.0
32.73,130.0
32.74,136.0
32.75,156.0
32.76,147.0
32.77,138.0
32.78,135.0
32.79,141.0
32.8,135.0
32.81,164.0
32.82,119.0
32.83,122.0
32.84,145.0
32.85,130.0
32.86,125.0
32.87,125.0
32.88,120.0
32.89,136.0
32.9,127.0
32.91,124.0
32.92,123.0
32.93,121.0
32.94,115.0
32.95,97.0
32.96,113.0
32.97,104.0
32.98,89.0
32.99,97.0
33.0,108.0
33.01,96.0
33.02,97.0
33.03,103.0
33.04,89.0
33.05,101.0
33.06,101.0
33.07,107.0
33.08,94.0
33.09,90.0
33.1,85.0
33.11,93.0
33.12,85.0
33.13,99.0
33.14,91.0
33.15,83.0
33.16,99.0
33.17,92.0
33.18,67.0
33.19,88.0
33.2,126.0
33.21,75.0
33.22,74.0
33.23,94.0
33.24,103.0
33.25,59.0
33.26,75.0
33.27,81.0
33.28,82.0
33.29,103.0
33.3,71.0
33.31,97.0
33.32,87.0
33.33,91.0
33.34,72.0
33.35,83.0
33.36,90.0
33.37,96.0
33.38,81.0
33.39,75.0
33.4,70.0
33.41,82.0
33.42,69.0
33.43,90.0
33.44,91.0
33.45,74.0
33.46,85.0
33.47,88.0
33.48,87.0
33.49,88.0
33.5,66.0
33.51,74.0
33.52,90.0
33.53,86.0
33.54,62.0
33.55,66.0
33.56,87.0
33.57,98.0
33.58,81.0
33.59,88.0
33.6,82.0
33.61,83.0
33.62,64.0
33.63,79.0
33.64,81.0
33.65,73.0
33.66,90.0
33.67,83.0
33.68,90.0
33.69,75.0
33.7,84.0
33.71,75.0
33.72,74.0
33.73,77.0
33.74,60.0
33.75,66.0
33.76,59.0
33.77,84.0
33.78,89.0
33.79,82.0
33.8,76.0
33.81,76.0
33.82,66.0
33.83,73.0
33.84,82.0
33.85,86.0
33.86,83.0
33.87,79.0
33.88,77.0
33.89,94.0
33.9,89.0
33.91,87.0
33.92,76.0
33.93,88.0
33.94,87.0
33.95,85.0
33.96,85.0
33.97,87.0
33.98,79.0
33.99,71.0
34.0,73.0
34.01,75.0
34.02,73.0
34.03,87.0
34.04,87.0
34.05,84.0
34.06,94.0
34.07,61.0
34.08,100.0
34.09,83.0
34.1,91.0
34.11,70.0
34.12,80.0
34.13,59.0
34.14,84.0
34.15,73.0
34.16,77.0
34.17,90.0
34.18,91.0
34.19,81.0
34.2,75.0
34.21,72.0
34.22,79.0
34.23,88.0
34.24,85.0
34.25,91.0
34.26,77.0
34.27,75.0
34.28,69.0
34.29,79.0
34.3,75.0
34.31,91.0
34.32,64.0
34.33,81.0
34.34,76.0
34.35,82.0
34.36,93.0
34.37,79.0
34.38,87.0
34.39,85.0
34.4,75.0
34.41,70.0
34.42,80.0
34.43,77.0
34.44,70.0
34.45,90.0
34.46,97.0
34.47,76.0
34.48,74.0
34.49,78.0
34.5,80.0
34.51,88.0
34.52,94.0
34.53,79.0
34.54,77.0
34.55,93.0
34.56,74.0
34.57,86.0
34.58,64.0
34.59,87.0
34.6,83.0
34.61,70.0
34.62,82.0
34.63,80.0
34.64,80.0
34.65,90.0
34.66,74.0
34.67,102.0
34.68,71.0
34.69,62.0
34.7,83.0
34.71,85.0
34.72,76.0
34.73,78.0
34.74,76.0
34.75,78.0
34.76,86.0
34.77,81.0
34.78,94.0
34.79,83.0
34.8,89.0
34.81,76.0
34.82,81.0
34.83,75.0
34.84,61.0
34.85,76.0
34.86,91.0
34.87,76.0
34.88,88.0
34.89,72.0
34.9,71.0
34.91,70.0
34.92,63.0
34.93,94.0
34.94,85.0
34.95,91.0
34.96,87.0
34.97,83.0
34.98,80.0
34.99,76.0
35.0,86.0
35.01,75.0
35.02,70.0
35.03,85.0
35.04,83.0
35.05,87.0
35.06,63.0
35.07,67.0
35.08,88.0
35.09,72.0
35.1,76.0
35.11,76.0
35.12,88.0
35.13,67.0
35.14,91.0
35.15,92.0
35.16,76.0
35.17,78.0
35.18,89.0
35.19,91.0
35.2,102.0
35.21,75.0
35.22,84.0
35.23,76.0
35.24,70.0
35.25,72.0
35.26,73.0
35.27,86.0
35.28,81.0
35.29,75.0
35.3,67.0
35.31,91.0
35.32,79.0
35.33,66.0
35.34,81.0
35.35,78.0
35.36,78.0
35.37,84.0
35.38,62.0
35.39,76.0
35.4,102.0
35.41,61.0
35.42,77.0
35.43,73.0
35.44,90.0
35.45,73.0
35.46,78.0
35.47,75.0
35.48,76.0
35.49,85.0
35.5,92.0
35.51,64.0
35.52,69.0
35.53,83.0
35.54,86.0
35.55,83.0
35.56,83.0
35.57,105.0
35.58,93.0
35.59,89.0
35.6,87.0
35.61,86.0
35.62,100.0
35.63,93.0
35.64,90.0
35.65,87.0
35.66,81.0
35.67,82.0
35.68,92.0
35.69,79.0
35.7,74.0
35.71,88.0
35.72,94.0
35.73,94.0
35.74,102.0
35.75,102.0
35.76,114.0
35.77,124.0
35.78,119.0
35.79,106.0
35.8,109.0
35.81,121.0
35.82,115.0
35.83,97.0
35.84,93.0
35.85,101.0
35.86,108.0
35.87,108.0
35.88,113.0
35.89,95.0
35.9,119.0
35.91,95.0
35.92,91.0
35.93,108.0
35.94,113.0
35.95,98.0
35.96,115.0
35.97,124.0
35.98,104.0
35.99,111.0
36.0,90.0
36.01,115.0
36.02,114.0
36.03,106.0
36.04,106.0
36.05,107.0
36.06,102.0
36.07,94.0
36.08,101.0
36.09,103.0
36.1,100.0
36.11,97.0
36.12,100.0
36.13,92.0
36.14,106.0
36.15,92.0
36.16,114.0
36.17,97.0
36.18,98.0
36.19,79.0
36.2,90.0
36.21,82.0
36.22,91.0
36.23,88.0
36.24,95.0
36.25,92.0
36.26,81.0
36.27,78.0
36.28,92.0
36.29,79.0
36.3,82.0
36.31,82.0
36.32,92.0
36.33,68.0
36.34,85.0
36.35,97.0
36.36,88.0
36.37,69.0
36.38,68.0
36.39,83.0
36.4,75.0
36.41,93.0
36.42,87.0
36.43,79.0
36.44,75.0
36.45,70.0
36.46,82.0
36.47,76.0
36.48,80.0
36.49,80.0
36.5,82.0
36.51,84.0
36.52,96.0
36.53,77.0
36.54,86.0
36.55,72.0
36.56,88.0
36.57,75.0
36.58,82.0
36.59,75.0
36.6,81.0
36.61,71.0
36.62,72.0
36.63,68.0
36.64,78.0
36.65,68.0
36.66,77.0
36.67,89.0
36.68,88.0
36.69,80.0
36.7,96.0
36.71,85.0
36.72,79.0
36.73,72.0
36.74,77.0
36.75,79.0
36.76,89.0
36.77,80.0
36.78,65.0
36.79,85.0
36.8,90.0
36.81,78.0
36.82,85.0
36.83,80.0
36.84,92.0
36.85,76.0
36.86,79.0
36.87,63.0
36.88,85.0
36.89,76.0
36.9,80.0
36.91,82.0
36.92,71.0
36.93,101.0
36.94,68.0
36.95,73.0
36.96,86.0
36.97,89.0
36.98,87.0
36.99,86.0
37.0,75.0
37.01,75.0
37.02,75.0
37.03,77.0
37.04,98.0
37.05,75.0
37.06,82.0
37.07,81.0
37.08,75.0
37.09,86.0
37.1,101.0
37.11,68.0
37.12,74.0
37.13,82.0
37.14,81.0
37.15,72.0
37.16,86.0
37.17,84.0
37.18,82.0
37.19,80.0
37.2,91.0
37.21,76.0
37.22,79.0
37.23,76.0
37.24,85.0
37.25,91.0
37.26,85.0
37.27,75.0
37.28,77.0
37.29,64.0
37.3,73.0
37.31,85.0
37.32,77.0
37.33,86.0
37.34,72.0
37.35,80.0
37.36,75.0
37.37,88.0
37.38,79.0
37.39,62.0
37.4,87.0
37.41,73.0
37.42,68.0
37.43,95.0
37.44,79.0
37.45,102.0
37.46,72.0
37.47,84.0
37.48,80.0
37.49,81.0
37.5,76.0
37.51,77.0
37.52,70.0
37.53,86.0
37.54,65.0
37.55,85.0
37.56,84.0
37.57,76.0
37.58,76.0
37.59,74.0
37.6,81.0
37.61,79.0
37.62,87.0
37.63,91.0
37.64,86.0
37.65,84.0
37.66,77.0
37.67,68.0
37.68,74.0
37.69,71.0
37.7,74.0
37.71,69.0
37.72,65.0
37.73,87.0
37.74,70.0
37.75,73.0
37.76,80.0
37.77,74.0
37.78,92.0
37.79,90.0
37.8,60.0
37.81,75.0
37.82,71.0
37.83,67.0
37.84,84.0
37.85,67.0
37.86,62.0
37.87,77.0
37.88,76.0
37.89,92.0
37.9,81.0
37.91,73.0
37.92,81.0
37.93,83.0
37.94,74.0
37.95,79.0
37.96,78.0
37.97,85.0
37.98,73.0
37.99,78.0
38.0,69.0
38.01,77.0
38.02,71.0
38.03,69.0
38.04,83.0
38.05,91.0
38.06,90.0
38.07,70.0
38.08,85.0
38.09,91.0
38.1,79.0
38.11,75.0
38.12,79.0
38.13,67.0
38.14,74.0
38.15,94.0
38.16,69.0
38.17,71.0
38.18,84.0
38.19,81.0
38.2,82.0
38.21,83.0
38.22,67.0
38.23,80.0
38.24,92.0
38.25,66.0
38.26,83.0
38.27,89.0
38.28,61.0
38.29,86.0
38.3,71.0
38.31,70.0
38.32,58.0
38.33,74.0
38.34,71.0
38.35,68.0
38.36,80.0
38.37,81.0
38.38,65.0
38.39,92.0
38.4,75.0
38.41,72.0
38.42,73.0
38.43,66.0
38.44,68.0
38.45,69.0
38.46,81.0
38.47,69.0
38.48,85.0
38.49,68.0
38.5,76.0
38.51,73.0
38.52,92.0
38.53,64.0
38.54,78.0
38.55,67.0
38.56,73.0
38.57,59.0
38.58,74.0
38.59,77.0
38.6,68.0
38.61,72.0
38.62,64.0
38.63,71.0
38.64,85.0
38.65,70.0
38.66,74.0
38.67,67.0
38.68,67.0
38.69,91.0
38.7,70.0
38.71,68.0
38.72,73.0
38.73,72.0
38.74,89.0
38.75,73.0
38.76,73.0
38.77,96.0
38.78,60.0
38.79,63.0
38.8,73.0
38.81,69.0
38.82,87.0
38.83,80.0
38.84,88.0
38.85,74.0
38.86,72.0
38.87,88.0
38.88,90.0
38.89,75.0
38.9,75.0
38.91,77.0
38.92,86.0
38.93,84.0
38.94,94.0
38.95,83.0
38.96,65.0
38.97,55.0
38.98,85.0
38.99,82.0
39.0,75.0
39.01,88.0
39.02,69.0
39.03,78.0
39.04,79.0
39.05,81.0
39.06,85.0
39.07,71.0
39.08,74.0
39.09,77.0
39.1,96.0
39.11,82.0
39.12,66.0
39.13,86.0
39.14,89.0
39.15,85.0
39.16,59.0
39.17,78.0
39.18,95.0
39.19,93.0
39.2,71.0
39.21,88.0
39.22,70.0
39.23,81.0
39.24,86.0
39.25,63.0
39.26,82.0
39.27,82.0
39.28,75.0
39.29,76.0
39.3,77.0
39.31,79.0
39.32,82.0
39.33,81.0
39.34,76.0
39.35,68.0
39.36,73.0
39.37,77.0
39.38,83.0
39.39,71.0
39.4,98.0
39.41,80.0
39.42,68.0
39.43,82.0
39.44,80.0
39.45,64.0
39.46,80.0
39.47,73.0
39.48,88.0
39.49,62.0
39.5,61.0
39.51,72.0
39.52,101.0
39.53,93.0
39.54,71.0
39.55,75.0
39.56,80.0
39.57,62.0
39.58,78.0
39.59,66.0
39.6,69.0
39.61,62.0
39.62,68.0
39.63,75.0
39.64,82.0
39.65,72.0
39.66,78.0
39.67,89.0
39.68,100.0
39.69,80.0
39.7,77.0
39.71,72.0
39.72,67.0
39.73,84.0
39.74,66.0
39.75,73.0
39.76,74.0
39.77,63.0
39.78,77.0
39.79,72.0
39.8,67.0
39.81,81.0
39.82,74.0
39.83,94.0
39.84,92.0
39.85,75.0
39.86,99.0
39.87,92.0
39.88,72.0
39.89,88.0
39.9,75.0
39.91,90.0
39.92,88.0
39.93,81.0
39.94,88.0
39.95,81.0
39.96,69.0
39.97,73.0
39.98,82.0
39.99,81.0
40.0,74.0
40.01,79.0
40.02,70.0
40.03,86.0
40.04,99.0
40.05,68.0
40.06,72.0
40.07,72.0
40.08,73.0
40.09,74.0
40.1,78.0
40.11,70.0
40.12,72.0
40.13,84.0
40.14,79.0
40.15,74.0
40.16,80.0
40.17,72.0
40.18,63.0
40.19,74.0
40.2,70.0
40.21,72.0
40.22,76.0
40.23,79.0
40.24,71.0
40.25,74.0
40.26,73.0
40.27,80.0
40.28,97.0
40.29,88.0
40.3,74.0
40.31,63.0
40.32,87.0
40.33,72.0
40.34,81.0
40.35,97.0
40.36,76.0
40.37,98.0
40.38,69.0
40.39,78.0
40.4,96.0
40.41,86.0
40.42,67.0
40.43,75.0
40.44,78.0
40.45,76.0
40.46,69.0
40.47,67.0
40.48,77.0
40.49,90.0
40.5,78.0
40.51,62.0
40.52,75.0
40.53,85.0
40.54,64.0
40.55,71.0
40.56,74.0
40.57,85.0
40.58,69.0
40.59,105.0
40.6,68.0
40.61,87.0
40.62,87.0
40.63,83.0
40.64,59.0
40.65,70.0
40.66,68.0
40.67,83.0
40.68,68.0
40.69,85.0
40.7,61.0
40.71,64.0
40.72,83.0
40.73,90.0
40.74,69.0
40.75,67.0
40.76,81.0
40.77,75.0
40.78,66.0
40.79,65.0
40.8,82.0
40.81,94.0
40.82,93.0
40.83,72.0
40.84,74.0
40.85,78.0
40.86,75.0
40.87,78.0
40.88,72.0
40.89,71.0
40.9,67.0
40.91,72.0
40.92,72.0
40.93,76.0
40.94,73.0
40.95,99.0
40.96,80.0
40.97,79.0
40.98,76.0
40.99,76.0
41.0,66.0
41.01,77.0
41.02,86.0
41.03,78.0
41.04,69.0
41.05,77.0
41.06,88.0
41.07,81.0
41.08,82.0
41.09,73.0
41.1,83.0
41.11,76.0
41.12,82.0
41.13,77.0
41.14,79.0
41.15,88.0
41.16,86.0
41.17,74.0
41.18,92.0
41.19,83.0
41.2,88.0
41.21,86.0
41.22,75.0
41.23,81.0
41.24,73.0
41.25,79.0
41.26,80.0
41.27,87.0
41.28,75.0
41.29,74.0
41.3,81.0
41.31,69.0
41.32,82.0
41.33,83.0
41.34,86.0
41.35,96.0
41.36,85.0
41.37,91.0
41.38,94.0
41.39,61.0
41.4,88.0
41.41,80.0
41.42,79.0
41.43,95.0
41.44,81.0
41.45,79.0
41.46,85.0
41.47,83.0
41.48,81.0
41.49,81.0
41.5,81.0
41.51,76.0
41.52,78.0
41.53,67.0
41.54,77.0
41.55,79.0
41.56,91.0
41.57,85.0
41.58,81.0
41.59,74.0
41.6,85.0
41.61,83.0
41.62,65.0
41.63,73.0
41.64,86.0
41.65,77.0
41.66,74.0
41.67,62.0
41.68,71.0
41.69,82.0
41.7,72.0
41.71,78.0
41.72,82.0
41.73,67.0
41.74,88.0
41.75,82.0
41.76,80.0
41.77,71.0
41.78,77.0
41.79,73.0
41.8,85.0
41.81,101.0
41.82,96.0
41.83,73.0
41.84,89.0
41.85,88.0
41.86,77.0
41.87,67.0
41.88,72.0
41.89,85.0
41.9,78.0
41.91,67.0
41.92,57.0
41.93,95.0
41.94,80.0
41.95,92.0
41.96,83.0
41.97,75.0
41.98,77.0
41.99,84.0
42.0,72.0
42.01,75.0
42.02,76.0
42.03,68.0
42.04,80.0
42.05,71.0
42.06,90.0
42.07,80.0
42.08,73.0
42.09,72.0
42.1,92.0
42.11,80.0
42.12,71.0
42.13,89.0
42.14,89.0
42.15,70.0
42.16,71.0
42.17,81.0
42.18,91.0
42.19,86.0
42.2,76.0
42.21,80.0
42.22,66.0
42.23,83.0
42.24,80.0
42.25,83.0
42.26,91.0
42.27,83.0
42.28,81.0
42.29,103.0
42.3,88.0
42.31,86.0
42.32,90.0
42.33,81.0
42.34,85.0
42.35,72.0
42.36,81.0
42.37,82.0
42.38,84.0
42.39,88.0
42.4,86.0
42.41,82.0
42.42,81.0
42.43,83.0
42.44,77.0
42.45,72.0
42.46,88.0
42.47,80.0
42.48,68.0
42.49,90.0
42.5,70.0
42.51,88.0
42.52,76.0
42.53,77.0
42.54,78.0
42.55,81.0
42.56,87.0
42.57,79.0
42.58,102.0
42.59,83.0
42.6,68.0
42.61,87.0
42.62,93.0
42.63,76.0
42.64,70.0
42.65,79.0
42.66,85.0
42.67,77.0
42.68,65.0
42.69,77.0
42.7,82.0
42.71,81.0
42.72,78.0
42.73,81.0
42.74,72.0
42.75,80.0
42.76,84.0
42.77,78.0
42.78,66.0
42.79,90.0
42.8,99.0
42.81,76.0
42.82,76.0
42.83,83.0
42.84,74.0
42.85,80.0
42.86,89.0
42.87,87.0
42.88,96.0
42.89,93.0
42.9,79.0
42.91,86.0
42.92,81.0
42.93,90.0
42.94,97.0
42.95,74.0
42.96,88.0
42.97,76.0
42.98,73.0
42.99,84.0
43.0,69.0
43.01,100.0
43.02,92.0
43.03,86.0
43.04,89.0
43.05,100.0
43.06,65.0
43.07,64.0
43.08,88.0
43.09,103.0
43.1,93.0
43.11,95.0
43.12,74.0
43.13,91.0
43.14,95.0
43.15,80.0
43.16,77.0
43.17,97.0
43.18,89.0
43.19,90.0
43.2,83.0
43.21,79.0
43.22,85.0
43.23,80.0
43.24,99.0
43.25,67.0
43.26,83.0
43.27,84.0
43.28,67.0
43.29,83.0
43.3,72.0
43.31,83.0
43.32,79.0
43.33,80.0
43.34,79.0
43.35,82.0
43.36,95.0
43.37,82.0
43.38,75.0
43.39,76.0
43.4,78.0
43.41,78.0
43.42,81.0
43.43,82.0
43.44,77.0
43.45,79.0
43.46,84.0
43.47,78.0
43.48,76.0
43.49,82.0
43.5,75.0
43.51,83.0
43.52,95.0
43.53,73.0
43.54,83.0
43.55,78.0
43.56,75.0
43.57,75.0
43.58,79.0
43.59,83.0
43.6,80.0
43.61,71.0
43.62,82.0
43.63,83.0
43.64,79.0
43.65,74.0
43.66,76.0
43.67,89.0
43.68,91.0
43.69,84.0
43.7,73.0
43.71,70.0
43.72,78.0
43.73,91.0
43.74,68.0
43.75,71.0
43.76,70.0
43.77,79.0
43.78,85.0
43.79,71.0
43.8,85.0
43.81,82.0
43.82,69.0
43.83,76.0
43.84,77.0
43.85,79.0
43.86,91.0
43.87,84.0
43.88,92.0
43.89,89.0
43.9,93.0
43.91,85.0
43.92,74.0
43.93,68.0
43.94,82.0
43.95,93.0
43.96,83.0
43.97,80.0
43.98,85.0
43.99,86.0
44.0,78.0
44.01,77.0
44.02,83.0
44.03,85.0
44.04,76.0
44.05,85.0
44.06,73.0
44.07,75.0
44.08,72.0
44.09,84.0
44.1,76.0
44.11,87.0
44.12,92.0
44.13,92.0
44.14,88.0
44.15,82.0
44.16,78.0
44.17,66.0
44.18,81.0
44.19,99.0
44.2,91.0
44.21,93.0
44.22,89.0
44.23,72.0
44.24,88.0
44.25,103.0
44.26,81.0
44.27,85.0
44.28,87.0
44.29,81.0
44.3,80.0
44.31,61.0
44.32,76.0
44.33,80.0
44.34,97.0
44.35,74.0
44.36,61.0
44.37,58.0
44.38,77.0
44.39,75.0
44.4,80.0
44.41,87.0
44.42,69.0
44.43,80.0
44.44,64.0
44.45,83.0
44.46,68.0
44.47,84.0
44.48,67.0
44.49,70.0
44.5,86.0
44.51,88.0
44.52,75.0
44.53,92.0
44.54,89.0
44.55,85.0
44.56,64.0
44.57,82.0
44.58,85.0
44.59,89.0
44.6,87.0
44.61,78.0
44.62,89.0
44.63,77.0
44.64,61.0
44.65,104.0
44.66,109.0
44.67,61.0
44.68,88.0
44.69,90.0
44.7,80.0
44.71,61.0
44.72,79.0
44.73,82.0
44.74,82.0
44.75,82.0
44.76,87.0
44.77,82.0
44.78,83.0
44.79,91.0
44.8,84.0
44.81,74.0
44.82,79.0
44.83,79.0
44.84,73.0
44.85,68.0
44.86,85.0
44.87,81.0
44.88,78.0
44.89,68.0
44.9,69.0
44.91,68.0
44.92,83.0
44.93,94.0
44.94,86.0
44.95,78.0
44.96,88.0
44.97,56.0
44.98,79.0
44.99,83.0
45.0,83.0
45.01,96.0
45.02,84.0
45.03,84.0
45.04,98.0
45.05,86.0
45.06,80.0
45.07,70.0
45.08,96.0
45.09,78.0
45.1,79.0
45.11,70.0
45.12,87.0
45.13,82.0
45.14,83.0
45.15,74.0
45.16,89.0
45.17,74.0
45.18,88.0
45.19,78.0
45.2,78.0
45.21,85.0
45.22,90.0
45.23,76.0
45.24,76.0
45.25,93.0
45.26,76.0
45.27,87.0
45.28,85.0
45.29,93.0
45.3,83.0
45.31,93.0
45.32,86.0
45.33,87.0
45.34,77.0
45.35,78.0
45.36,90.0
45.37,92.0
45.38,65.0
45.39,95.0
45.4,93.0
45.41,102.0
45.42,77.0
45.43,108.0
45.44,76.0
45.45,80.0
45.46,83.0
45.47,76.0
45.48,80.0
45.49,81.0
45.5,89.0
45.51,91.0
45.52,88.0
45.53,94.0
45.54,85.0
45.55,69.0
45.56,71.0
45.57,74.0
45.58,76.0
45.59,77.0
45.6,86.0
45.61,81.0
45.62,69.0
45.63,89.0
45.64,93.0
45.65,70.0
45.66,83.0
45.67,82.0
45.68,104.0
45.69,75.0
45.7,89.0
45.71,83.0
45.72,93.0
45.73,62.0
45.74,89.0
45.75,84.0
45.76,83.0
45.77,75.0
45.78,95.0
45.79,80.0
45.8,99.0
45.81,88.0
45.82,75.0
45.83,83.0
45.84,94.0
45.85,97.0
45.86,87.0
45.87,98.0
45.88,73.0
45.89,67.0
45.9,78.0
45.91,91.0
45.92,77.0
45.93,83.0
45.94,86.0
45.95,100.0
45.96,76.0
45.97,81.0
45.98,112.0
45.99,77.0
46.0,111.0
46.01,95.0
46.02,84.0
46.03,82.0
46.04,88.0
46.05,83.0
46.06,80.0
46.07,87.0
46.08,62.0
46.09,101.0
46.1,84.0
46.11,82.0
46.12,82.0
46.13,83.0
46.14,87.0
46.15,91.0
46.16,94.0
46.17,73.0
46.18,93.0
46.19,81.0
46.2,90.0
46.21,85.0
46.22,72.0
46.23,94.0
46.24,86.0
46.25,81.0
46.26,105.0
46.27,96.0
46.28,110.0
46.29,80.0
46.3,101.0
46.31,79.0
46.32,98.0
46.33,99.0
46.34,97.0
46.35,92.0
46.36,90.0
46.37,90.0
46.38,91.0
46.39,92.0
46.4,107.0
46.41,111.0
46.42,112.0
46.43,94.0
46.44,92.0
46.45,113.0
46.46,99.0
46.47,92.0
46.48,96.0
46.49,114.0
46.5,86.0
46.51,115.0
46.52,85.0
46.53,91.0
46.54,127.0
46.55,90.0
46.56,111.0
46.57,88.0
46.58,110.0
46.59,102.0
46.6,104.0
46.61,83.0
46.62,124.0
46.63,114.0
46.64,125.0
46.65,116.0
46.66,114.0
46.67,111.0
46.68,122.0
46.69,128.0
46.7,84.0
46.71,140.0
46.72,133.0
46.73,120.0
46.74,145.0
46.75,120.0
46.76,132.0
46.77,132.0
46.78,160.0
46.79,143.0
46.8,151.0
46.81,180.0
46.82,153.0
46.83,170.0
46.84,162.0
46.85,169.0
46.86,196.0
46.87,200.0
46.88,181.0
46.89,195.0
46.9,230.0
46.91,193.0
46.92,247.0
46.93,210.0
46.94,241.0
46.95,232.0
46.96,252.0
46.97,263.0
46.98,278.0
46.99,263.0
47.0,268.0
47.01,279.0
47.02,267.0
47.03,289.0
47.04,270.0
47.05,247.0
47.06,240.0
47.07,257.0
47.08,255.0
47.09,237.0
47.1,232.0
47.11,226.0
47.12,248.0
47.13,223.0
47.14,212.0
47.15,228.0
47.16,197.0
47.17,220.0
47.18,207.0
47.19,212.0
47.2,203.0
47.21,201.0
47.22,171.0
47.23,188.0
47.24,166.0
47.25,193.0
47.26,164.0
47.27,165.0
47.28,157.0
47.29,173.0
47.3,172.0
47.31,148.0
47.32,150.0
47.33,182.0
47.34,136.0
47.35,147.0
47.36,157.0
47.37,141.0
47.38,139.0
47.39,151.0
47.4,139.0
47.41,150.0
47.42,136.0
47.43,146.0
47.44,112.0
47.45,122.0
47.46,123.0
47.47,129.0
47.48,126.0
47.49,116.0
47.5,127.0
47.51,136.0
47.52,122.0
47.53,140.0
47.54,112.0
47.55,111.0
47.56,121.0
47.57,125.0
47.58,112.0
47.59,115.0
47.6,98.0
47.61,130.0
47.62,118.0
47.63,123.0
47.64,136.0
47.65,115.0
47.66,108.0
47.67,106.0
47.68,118.0
47.69,125.0
47.7,93.0
47.71,108.0
47.72,104.0
47.73,91.0
47.74,108.0
47.75,105.0
47.76,97.0
47.77,110.0
47.78,104.0
47.79,108.0
47.8,116.0
47.81,127.0
47.82,100.0
47.83,133.0
47.84,101.0
47.85,120.0
47.86,99.0
47.87,88.0
47.88,99.0
47.89,100.0
47.9,82.0
47.91,104.0
47.92,97.0
47.93,99.0
47.94,107.0
47.95,99.0
47.96,104.0
47.97,98.0
47.98,106.0
47.99,94.0
48.0,89.0
48.01,101.0
48.02,89.0
48.03,91.0
48.04,82.0
48.05,96.0
48.06,83.0
48.07,97.0
48.08,92.0
48.09,95.0
48.1,110.0
48.11,105.0
48.12,90.0
48.13,79.0
48.14,94.0
48.15,89.0
48.16,98.0
48.17,111.0
48.18,96.0
48.19,95.0
48.2,93.0
48.21,104.0
48.22,94.0
48.23,91.0
48.24,118.0
48.25,90.0
48.26,87.0
48.27,80.0
48.28,95.0
48.29,119.0
48.3,87.0
48.31,73.0
48.32,88.0
48.33,84.0
48.34,101.0
48.35,94.0
48.36,91.0
48.37,93.0
48.38,107.0
48.39,96.0
48.4,80.0
48.41,89.0
48.42,75.0
48.43,75.0
48.44,96.0
48.45,108.0
48.46,87.0
48.47,89.0
48.48,88.0
48.49,94.0
48.5,95.0
48.51,80.0
48.52,92.0
48.53,107.0
48.54,101.0
48.55,85.0
48.56,99.0
48.57,86.0
48.58,99.0
48.59,90.0
48.6,82.0
48.61,81.0
48.62,101.0
48.63,83.0
48.64,88.0
48.65,75.0
48.66,84.0
48.67,80.0
48.68,81.0
48.69,78.0
48.7,91.0
48.71,100.0
48.72,81.0
48.73,96.0
48.74,93.0
48.75,82.0
48.76,88.0
48.77,100.0
48.78,94.0
48.79,88.0
48.8,76.0
48.81,106.0
48.82,92.0
48.83,81.0
48.84,81.0
48.85,93.0
48.86,87.0
48.87,84.0
48.88,86.0
48.89,95.0
48.9,83.0
48.91,107.0
48.92,87.0
48.93,90.0
48.94,93.0
48.95,77.0
48.96,80.0
48.97,103.0
48.98,76.0
48.99,80.0
49.0,86.0
49.01,78.0
49.02,112.0
49.03,98.0
49.04,93.0
49.05,81.0
49.06,86.0
49.07,94.0
49.08,80.0
49.09,112.0
49.1,85.0
49.11,92.0
49.12,91.0
49.13,76.0
49.14,106.0
49.15,86.0
49.16,101.0
49.17,87.0
49.18,94.0
49.19,95.0
49.2,80.0
49.21,79.0
49.22,95.0
49.23,87.0
49.24,93.0
49.25,90.0
49.26,87.0
49.27,101.0
49.28,91.0
49.29,98.0
49.3,87.0
49.31,80.0
49.32,101.0
49.33,108.0
49.34,86.0
49.35,100.0
49.36,89.0
49.37,94.0
49.38,81.0
49.39,95.0
49.4,84.0
49.41,89.0
49.42,97.0
49.43,93.0
49.44,72.0
49.45,81.0
49.46,75.0
49.47,88.0
49.48,82.0
49.49,106.0
49.5,105.0
49.51,87.0
49.52,83.0
49.53,99.0
49.54,112.0
49.55,79.0
49.56,82.0
49.57,93.0
49.58,71.0
49.59,94.0
49.6,84.0
49.61,76.0
49.62,83.0
49.63,67.0
49.64,72.0
49.65,84.0
49.66,77.0
49.67,76.0
49.68,86.0
49.69,78.0
49.7,79.0
49.71,85.0
49.72,87.0
49.73,89.0
49.74,74.0
49.75,87.0
49.76,94.0
49.77,94.0
49.78,79.0
49.79,96.0
49.8,99.0
49.81,76.0
49.82,93.0
49.83,81.0
49.84,86.0
49.85,91.0
49.86,87.0
49.87,74.0
49.88,84.0
49.89,84.0
49.9,81.0
49.91,82.0
49.92,82.0
49.93,89.0
49.94,101.0
49.95,91.0
49.96,89.0
49.97,99.0
49.98,84.0
49.99,91.0
50.0,81.0
50.01,89.0
50.02,97.0
50.03,74.0
50.04,82.0
50.05,89.0
50.06,96.0
50.07,97.0
50.08,90.0
50.09,89.0
50.1,99.0
50.11,92.0
50.12,82.0
50.13,89.0
50.14,74.0
50.15,93.0
50.16,81.0
50.17,76.0
50.18,72.0
50.19,81.0
50.2,84.0
50.21,91.0
50.22,76.0
50.23,92.0
50.24,77.0
50.25,85.0
50.26,98.0
50.27,85.0
50.28,92.0
50.29,83.0
50.3,84.0
50.31,57.0
50.32,100.0
50.33,74.0
50.34,80.0
50.35,92.0
50.36,93.0
50.37,66.0
50.38,81.0
50.39,90.0
50.4,95.0
50.41,101.0
50.42,67.0
50.43,89.0
50.44,74.0
50.45,100.0
50.46,95.0
50.47,113.0
50.48,70.0
50.49,78.0
50.5,87.0
50.51,104.0
50.52,83.0
50.53,79.0
50.54,93.0
50.55,86.0
50.56,67.0
50.57,80.0
50.58,82.0
50.59,91.0
50.6,100.0
50.61,75.0
50.62,95.0
50.63,83.0
50.64,92.0
50.65,82.0
50.66,81.0
50.67,96.0
50.68,86.0
50.69,99.0
50.7,79.0
50.71,93.0
50.72,94.0
50.73,80.0
50.74,82.0
50.75,91.0
50.76,86.0
50.77,89.0
50.78,84.0
50.79,94.0
50.8,82.0
50.81,73.0
50.82,73.0
50.83,87.0
50.84,60.0
50.85,90.0
50.86,75.0
50.87,83.0
50.88,98.0
50.89,99.0
50.9,92.0
50.91,89.0
50.92,78.0
50.93,61.0
50.94,81.0
50.95,90.0
50.96,87.0
50.97,85.0
50.98,84.0
50.99,75.0
51.0,81.0
51.01,75.0
51.02,99.0
51.03,85.0
51.04,90.0
51.05,81.0
51.06,93.0
51.07,73.0
51.08,85.0
51.09,106.0
51.1,74.0
51.11,84.0
51.12,97.0
51.13,95.0
51.14,89.0
51.15,84.0
51.16,88.0
51.17,87.0
51.18,85.0
51.19,73.0
51.2,85.0
51.21,74.0
51.22,86.0
51.23,86.0
51.24,92.0
51.25,84.0
51.26,77.0
51.27,83.0
51.28,64.0
51.29,84.0
51.3,81.0
51.31,77.0
51.32,79.0
51.33,78.0
51.34,87.0
51.35,80.0
51.36,92.0
51.37,66.0
51.38,78.0
51.39,83.0
51.4,77.0
51.41,69.0
51.42,85.0
51.43,80.0
51.44,82.0
51.45,105.0
51.46,87.0
51.47,69.0
51.48,92.0
51.49,88.0
51.5,109.0
51.51,90.0
51.52,74.0
51.53,94.0
51.54,92.0
51.55,82.0
51.56,93.0
51.57,82.0
51.58,63.0
51.59,107.0
51.6,83.0
51.61,81.0
51.62,89.0
51.63,89.0
51.64,105.0
51.65,84.0
51.66,84.0
51.67,87.0
51.68,77.0
51.69,94.0
51.7,90.0
51.71,83.0
51.72,88.0
51.73,68.0
51.74,89.0
51.75,82.0
51.76,94.0
51.77,67.0
51.78,89.0
51.79,83.0
51.8,105.0
51.81,97.0
51.82,72.0
51.83,89.0
51.84,77.0
51.85,86.0
51.86,89.0
51.87,88.0
51.88,84.0
51.89,89.0
51.9,76.0
51.91,78.0
51.92,79.0
51.93,91.0
51.94,108.0
51.95,74.0
51.96,79.0
51.97,83.0
51.98,83.0
51.99,88.0
52.0,78.0
52.01,75.0
52.02,88.0
52.03,67.0
52.04,88.0
52.05,80.0
52.06,86.0
52.07,75.0
52.08,62.0
52.09,79.0
52.1,88.0
52.11,91.0
52.12,94.0
52.13,52.0
52.14,92.0
52.15,69.0
52.16,65.0
52.17,84.0
52.18,93.0
52.19,84.0
52.2,72.0
52.21,95.0
52.22,98.0
52.23,83.0
52.24,86.0
52.25,71.0
52.26,91.0
52.27,93.0
52.28,95.0
52.29,86.0
52.3,86.0
52.31,97.0
52.32,70.0
52.33,77.0
52.34,72.0
52.35,69.0
52.36,86.0
52.37,79.0
52.38,88.0
52.39,77.0
52.4,76.0
52.41,83.0
52.42,87.0
52.43,80.0
52.44,93.0
52.45,89.0
52.46,73.0
52.47,88.0
52.48,82.0
52.49,84.0
52.5,65.0
52.51,79.0
52.52,81.0
52.53,83.0
52.54,82.0
52.55,93.0
52.56,90.0
52.57,96.0
52.58,94.0
52.59,71.0
52.6,90.0
52.61,83.0
52.62,79.0
52.63,95.0
52.64,84.0
52.65,85.0
52.66,81.0
52.67,75.0
52.68,95.0
52.69,88.0
52.7,82.0
52.71,69.0
52.72,70.0
52.73,79.0
52.74,81.0
52.75,81.0
52.76,84.0
52.77,84.0
52.78,72.0
52.79,84.0
52.8,100.0
52.81,74.0
52.82,95.0
52.83,93.0
52.84,84.0
52.85,75.0
52.86,91.0
52.87,84.0
52.88,96.0
52.89,88.0
52.9,86.0
52.91,100.0
52.92,73.0
52.93,85.0
52.94,99.0
52.95,81.0
52.96,85.0
52.97,70.0
52.98,81.0
52.99,89.0
53.0,70.0
53.01,64.0
53.02,101.0
53.03,82.0
53.04,92.0
53.05,87.0
53.06,91.0
53.07,80.0
53.08,94.0
53.09,87.0
53.1,79.0
53.11,89.0
53.12,80.0
53.13,89.0
53.14,60.0
53.15,98.0
53.16,83.0
53.17,90.0
53.18,90.0
53.19,82.0
53.2,79.0
53.21,92.0
53.22,82.0
53.23,80.0
53.24,87.0
53.25,73.0
53.26,92.0
53.27,77.0
53.28,93.0
53.29,83.0
53.3,71.0
53.31,79.0
53.32,85.0
53.33,72.0
53.34,78.0
53.35,71.0
53.36,102.0
53.37,90.0
53.38,73.0
53.39,89.0
53.4,81.0
53.41,80.0
53.42,68.0
53.43,70.0
53.44,83.0
53.45,84.0
53.46,83.0
53.47,89.0
53.48,96.0
53.49,96.0
53.5,82.0
53.51,84.0
53.52,85.0
53.53,88.0
53.54,84.0
53.55,80.0
53.56,85.0
53.57,104.0
53.58,93.0
53.59,92.0
53.6,92.0
53.61,80.0
53.62,89.0
53.63,70.0
53.64,87.0
53.65,83.0
53.66,101.0
53.67,82.0
53.68,82.0
53.69,84.0
53.7,79.0
53.71,72.0
53.72,78.0
53.73,90.0
53.74,80.0
53.75,68.0
53.76,79.0
53.77,67.0
53.78,84.0
53.79,86.0
53.8,98.0
53.81,72.0
53.82,58.0
53.83,107.0
53.84,81.0
53.85,82.0
53.86,95.0
53.87,87.0
53.88,77.0
53.89,70.0
53.9,95.0
53.91,77.0
53.92,80.0
53.93,87.0
53.94,81.0
53.95,75.0
53.96,76.0
53.97,91.0
53.98,65.0
53.99,72.0
54.0,68.0
54.01,79.0
54.02,85.0
54.03,83.0
54.04,73.0
54.05,87.0
54.06,87.0
54.07,91.0
54.08,82.0
54.09,76.0
54.1,85.0
54.11,70.0
54.12,88.0
54.13,95.0
54.14,104.0
54.15,82.0
54.16,86.0
54.17,85.0
54.18,82.0
54.19,89.0
54.2,85.0
54.21,88.0
54.22,85.0
54.23,82.0
54.24,89.0
54.25,81.0
54.26,71.0
54.27,96.0
54.28,91.0
54.29,83.0
54.3,70.0
54.31,93.0
54.32,95.0
54.33,83.0
54.34,79.0
54.35,67.0
54.36,86.0
54.37,89.0
54.38,89.0
54.39,69.0
54.4,84.0
54.41,81.0
54.42,79.0
54.43,86.0
54.44,82.0
54.45,75.0
54.46,76.0
54.47,90.0
54.48,83.0
54.49,93.0
54.5,89.0
54.51,88.0
54.52,92.0
54.53,88.0
54.54,94.0
54.55,75.0
54.56,74.0
54.57,85.0
54.58,100.0
54.59,80.0
54.6,82.0
54.61,88.0
54.62,84.0
54.63,81.0
54.64,89.0
54.65,86.0
54.66,76.0
54.67,72.0
54.68,88.0
54.69,79.0
54.7,84.0
54.71,86.0
54.72,67.0
54.73,89.0
54.74,88.0
54.75,82.0
54.76,96.0
54.77,83.0
54.78,94.0
54.79,98.0
54.8,103.0
54.81,80.0
54.82,90.0
54.83,77.0
54.84,91.0
54.85,94.0
54.86,118.0
54.87,81.0
54.88,93.0
54.89,83.0
54.9,81.0
54.91,78.0
54.92,67.0
54.93,91.0
54.94,91.0
54.95,89.0
54.96,73.0
54.97,83.0
54.98,98.0
54.99,94.0
55.0,106.0
55.01,105.0
55.02,77.0
55.03,76.0
55.04,106.0
55.05,80.0
55.06,71.0
55.07,89.0
55.08,79.0
55.09,104.0
55.1,86.0
55.11,92.0
55.12,95.0
55.13,110.0
55.14,78.0
55.15,87.0
55.16,81.0
55.17,96.0
55.18,83.0
55.19,71.0
55.2,103.0
55.21,95.0
55.22,99.0
55.23,74.0
55.24,88.0
55.25,90.0
55.26,99.0
55.27,86.0
55.28,86.0
55.29,96.0
55.3,70.0
55.31,94.0
55.32,74.0
55.33,87.0
55.34,88.0
55.35,92.0
55.36,107.0
55.37,87.0
55.38,87.0
55.39,107.0
55.4,77.0
55.41,95.0
55.42,91.0
55.43,87.0
55.44,101.0
55.45,94.0
55.46,95.0
55.47,83.0
55.48,96.0
55.49,112.0
55.5,83.0
55.51,105.0
55.52,97.0
55.53,83.0
55.54,105.0
55.55,82.0
55.56,104.0
55.57,100.0
55.58,103.0
55.59,99.0
55.6,100.0
55.61,88.0
55.62,112.0
55.63,100.0
55.64,106.0
55.65,90.0
55.66,108.0
55.67,89.0
55.68,88.0
55.69,95.0
55.7,102.0
55.71,89.0
55.72,88.0
55.73,94.0
55.74,93.0
55.75,101.0
55.76,115.0
55.77,103.0
55.78,81.0
55.79,96.0
55.8,103.0
55.81,106.0
55.82,116.0
55.83,116.0
55.84,108.0
55.85,108.0
55.86,100.0
55.87,91.0
55.88,122.0
55.89,109.0
55.9,98.0
55.91,94.0
55.92,100.0
55.93,107.0
55.94,95.0
55.95,116.0
55.96,105.0
55.97,118.0
55.98,120.0
55.99,111.0
56.0,101.0
56.01,96.0
56.02,110.0
56.03,87.0
56.04,81.0
56.05,88.0
56.06,99.0
56.07,108.0
56.08,87.0
56.09,83.0
56.1,87.0
56.11,115.0
56.12,112.0
56.13,95.0
56.14,87.0
56.15,91.0
56.16,97.0
56.17,100.0
56.18,86.0
56.19,81.0
56.2,98.0
56.21,104.0
56.22,94.0
56.23,93.0
56.24,95.0
56.25,93.0
56.26,87.0
56.27,74.0
56.28,87.0
56.29,83.0
56.3,101.0
56.31,101.0
56.32,104.0
56.33,108.0
56.34,89.0
56.35,77.0
56.36,101.0
56.37,88.0
56.38,95.0
56.39,90.0
56.4,92.0
56.41,91.0
56.42,106.0
56.43,91.0
56.44,96.0
56.45,80.0
56.46,79.0
56.47,78.0
56.48,92.0
56.49,89.0
56.5,82.0
56.51,87.0
56.52,65.0
56.53,104.0
56.54,65.0
56.55,76.0
56.56,93.0
56.57,101.0
56.58,89.0
56.59,92.0
56.6,86.0
56.61,98.0
56.62,78.0
56.63,78.0
56.64,84.0
56.65,91.0
56.66,82.0
56.67,79.0
56.68,99.0
56.69,102.0
56.7,85.0
56.71,96.0
56.72,84.0
56.73,84.0
56.74,91.0
56.75,81.0
56.76,88.0
56.77,86.0
56.78,81.0
56.79,67.0
56.8,75.0
56.81,82.0
56.82,100.0
56.83,81.0
56.84,77.0
56.85,94.0
56.86,75.0
56.87,87.0
56.88,78.0
56.89,89.0
56.9,82.0
56.91,101.0
56.92,106.0
56.93,90.0
56.94,103.0
56.95,84.0
56.96,88.0
56.97,65.0
56.98,92.0
56.99,75.0
57.0,85.0
57.01,82.0
57.02,97.0
57.03,96.0
57.04,71.0
57.05,85.0
57.06,104.0
57.07,86.0
57.08,89.0
57.09,92.0
57.1,71.0
57.11,80.0
57.12,77.0
57.13,76.0
57.14,90.0
57.15,96.0
57.16,87.0
57.17,72.0
57.18,79.0
57.19,68.0
57.2,97.0
57.21,77.0
57.22,102.0
57.23,90.0
57.24,91.0
57.25,91.0
57.26,81.0
57.27,79.0
57.28,86.0
57.29,90.0
57.3,81.0
57.31,73.0
57.32,86.0
57.33,78.0
57.34,90.0
57.35,93.0
57.36,89.0
57.37,91.0
57.38,101.0
57.39,97.0
57.4,92.0
57.41,76.0
57.42,90.0
57.43,89.0
57.44,98.0
57.45,74.0
57.46,94.0
57.47,92.0
57.48,69.0
57.49,103.0
57.5,80.0
57.51,90.0
57.52,93.0
57.53,89.0
57.54,83.0
57.55,78.0
57.56,99.0
57.57,103.0
57.58,89.0
57.59,68.0
57.6,84.0
57.61,70.0
57.62,100.0
57.63,98.0
57.64,80.0
57.65,81.0
57.66,95.0
57.67,82.0
57.68,81.0
57.69,95.0
57.7,88.0
57.71,92.0
57.72,83.0
57.73,83.0
57.74,100.0
57.75,97.0
57.76,80.0
57.77,91.0
57.78,88.0
57.79,83.0
57.8,74.0
57.81,89.0
57.82,83.0
57.83,99.0
57.84,76.0
57.85,90.0
57.86,83.0
57.87,78.0
57.88,72.0
57.89,94.0
57.9,73.0
57.91,74.0
57.92,88.0
57.93,89.0
57.94,105.0
57.95,73.0
57.96,88.0
57.97,82.0
57.98,78.0
57.99,75.0
58.0,78.0
58.01,97.0
58.02,69.0
58.03,81.0
58.04,84.0
58.05,79.0
58.06,94.0
58.07,80.0
58.08,82.0
58.09,80.0
58.1,94.0
58.11,100.0
58.12,93.0
58.13,84.0
58.14,81.0
58.15,87.0
58.16,69.0
58.17,72.0
58.18,116.0
58.19,82.0
58.2,97.0
58.21,86.0
58.22,94.0
58.23,102.0
58.24,95.0
58.25,88.0
58.26,90.0
58.27,80.0
58.28,87.0
58.29,86.0
58.3,87.0
58.31,91.0
58.32,81.0
58.33,82.0
58.34,89.0
58.35,78.0
58.36,102.0
58.37,101.0
58.38,90.0
58.39,93.0
58.4,89.0
58.41,65.0
58.42,103.0
58.43,80.0
58.44,80.0
58.45,95.0
58.46,97.0
58.47,86.0
58.48,83.0
58.49,91.0
58.5,97.0
58.51,99.0
58.52,94.0
58.53,91.0
58.54,87.0
58.55,86.0
58.56,96.0
58.57,92.0
58.58,91.0
58.59,69.0
58.6,91.0
58.61,87.0
58.62,76.0
58.63,71.0
58.64,91.0
58.65,96.0
58.66,96.0
58.67,73.0
58.68,79.0
58.69,66.0
58.7,75.0
58.71,86.0
58.72,78.0
58.73,89.0
58.74,90.0
58.75,91.0
58.76,90.0
58.77,87.0
58.78,91.0
58.79,88.0
58.8,95.0
58.81,80.0
58.82,81.0
58.83,86.0
58.84,81.0
58.85,86.0
58.86,84.0
58.87,86.0
58.88,77.0
58.89,82.0
58.9,82.0
58.91,77.0
58.92,79.0
58.93,82.0
58.94,76.0
58.95,92.0
58.96,95.0
58.97,106.0
58.98,79.0
58.99,80.0
59.0,89.0
59.01,74.0
59.02,101.0
59.03,83.0
59.04,89.0
59.05,85.0
59.06,107.0
59.07,73.0
59.08,86.0
59.09,82.0
59.1,74.0
59.11,85.0
59.12,74.0
59.13,95.0
59.14,84.0
59.15,94.0
59.16,83.0
59.17,90.0
59.18,75.0
59.19,83.0
59.2,76.0
59.21,91.0
59.22,87.0
59.23,83.0
59.24,84.0
59.25,102.0
59.26,87.0
59.27,85.0
59.28,81.0
59.29,96.0
59.3,83.0
59.31,69.0
59.32,91.0
59.33,80.0
59.34,71.0
59.35,89.0
59.36,80.0
59.37,79.0
59.38,75.0
59.39,86.0
59.4,91.0
59.41,74.0
59.42,77.0
59.43,80.0
59.44,83.0
59.45,74.0
59.46,78.0
59.47,89.0
59.48,83.0
59.49,95.0
59.5,91.0
59.51,78.0
59.52,81.0
59.53,93.0
59.54,77.0
59.55,86.0
59.56,84.0
59.57,69.0
59.58,87.0
59.59,88.0
59.6,79.0
59.61,85.0
59.62,77.0
59.63,94.0
59.64,113.0
59.65,87.0
59.66,102.0
59.67,84.0
59.68,73.0
59.69,85.0
59.7,89.0
59.71,106.0
59.72,84.0
59.73,84.0
59.74,85.0
59.75,95.0
59.76,83.0
59.77,97.0
59.78,76.0
59.79,93.0
59.8,85.0
59.81,88.0
59.82,92.0
59.83,88.0
59.84,77.0
59.85,88.0
59.86,70.0
59.87,75.0
59.88,86.0
59.89,78.0
59.9,79.0
59.91,89.0
59.92,86.0
59.93,72.0
59.94,83.0
59.95,82.0
59.96,88.0
59.97,84.0
59.98,76.0
59.99,98.0
60.0,100.0
60.01,85.0
60.02,88.0
60.03,97.0
60.04,64.0
60.05,98.0
60.06,72.0
60.07,98.0
60.08,82.0
60.09,93.0
60.1,99.0
60.11,79.0
60.12,89.0
60.13,87.0
60.14,90.0
60.15,104.0
60.16,97.0
60.17,92.0
60.18,65.0
60.19,107.0
60.2,66.0
60.21,72.0
60.22,96.0
60.23,83.0
60.24,103.0
60.25,83.0
60.26,94.0
60.27,77.0
60.28,99.0
60.29,83.0
60.3,87.0
60.31,85.0
60.32,95.0
60.33,93.0
60.34,86.0
60.35,85.0
60.36,78.0
60.37,108.0
60.38,93.0
60.39,100.0
60.4,96.0
60.41,87.0
60.42,73.0
60.43,86.0
60.44,85.0
60.45,77.0
60.46,111.0
60.47,99.0
60.48,91.0
60.49,94.0
60.5,92.0
60.51,80.0
60.52,74.0
60.53,76.0
60.54,72.0
60.55,84.0
60.56,83.0
60.57,85.0
60.58,94.0
60.59,92.0
60.6,90.0
60.61,81.0
60.62,101.0
60.63,78.0
60.64,93.0
60.65,96.0
60.66,97.0
60.67,87.0
60.68,97.0
60.69,75.0
60.7,91.0
60.71,75.0
60.72,86.0
60.73,70.0
60.74,97.0
60.75,91.0
60.76,82.0
60.77,107.0
60.78,95.0
60.79,88.0
60.8,71.0
60.81,102.0
60.82,87.0
60.83,88.0
60.84,90.0
60.85,86.0
60.86,83.0
60.87,89.0
60.88,91.0
60.89,76.0
60.9,97.0
60.91,93.0
60.92,100.0
60.93,73.0
60.94,94.0
60.95,108.0
60.96,80.0
60.97,85.0
60.98,84.0
60.99,72.0
61.0,82.0
61.01,63.0
61.02,80.0
61.03,77.0
61.04,74.0
61.05,85.0
61.06,75.0
61.07,79.0
61.08,84.0
61.09,90.0
61.1,77.0
61.11,79.0
61.12,87.0
61.13,77.0
61.14,91.0
61.15,94.0
61.16,75.0
61.17,78.0
61.18,91.0
61.19,88.0
61.2,82.0
61.21,87.0
61.22,91.0
61.23,92.0
61.24,89.0
61.25,82.0
61.26,75.0
61.27,82.0
61.28,83.0
61.29,73.0
61.3,92.0
61.31,65.0
61.32,88.0
61.33,87.0
61.34,96.0
61.35,91.0
61.36,84.0
61.37,77.0
61.38,91.0
61.39,72.0
61.4,94.0
61.41,84.0
61.42,104.0
61.43,89.0
61.44,122.0
61.45,80.0
61.46,78.0
61.47,68.0
61.48,89.0
61.49,90.0
61.5,76.0
61.51,86.0
61.52,103.0
61.53,82.0
61.54,83.0
61.55,88.0
61.56,79.0
61.57,86.0
61.58,86.0
61.59,79.0
61.6,78.0
61.61,89.0
61.62,80.0
61.63,76.0
61.64,81.0
61.65,79.0
61.66,74.0
61.67,90.0
61.68,75.0
61.69,92.0
61.7,97.0
61.71,88.0
61.72,100.0
61.73,84.0
61.74,83.0
61.75,91.0
61.76,90.0
61.77,86.0
61.78,84.0
61.79,82.0
61.8,68.0
61.81,82.0
61.82,91.0
61.83,100.0
61.84,73.0
61.85,89.0
61.86,81.0
61.87,79.0
61.88,93.0
61.89,88.0
61.9,71.0
61.91,91.0
61.92,78.0
61.93,90.0
61.94,79.0
61.95,88.0
61.96,77.0
61.97,77.0
61.98,87.0
61.99,84.0
62.0,103.0
62.01,91.0
62.02,84.0
62.03,97.0
62.04,78.0
62.05,95.0
62.06,87.0
62.07,84.0
62.08,93.0
62.09,82.0
62.1,100.0
62.11,81.0
62.12,95.0
62.13,82.0
62.14,82.0
62.15,87.0
62.16,82.0
62.17,96.0
62.18,89.0
62.19,73.0
62.2,79.0
62.21,80.0
62.22,79.0
62.23,94.0
62.24,95.0
62.25,86.0
62.26,75.0
62.27,86.0
62.28,73.0
62.29,82.0
62.3,85.0
62.31,86.0
62.32,99.0
62.33,86.0
62.34,87.0
62.35,87.0
62.36,79.0
62.37,109.0
62.38,76.0
62.39,102.0
62.4,74.0
62.41,94.0
62.42,94.0
62.43,89.0
62.44,67.0
62.45,83.0
62.46,94.0
62.47,97.0
62.48,74.0
62.49,93.0
62.5,78.0
62.51,88.0
62.52,81.0
62.53,91.0
62.54,85.0
62.55,91.0
62.56,95.0
62.57,85.0
62.58,66.0
62.59,102.0
62.6,74.0
62.61,89.0
62.62,101.0
62.63,96.0
62.64,83.0
62.65,73.0
62.66,108.0
62.67,97.0
62.68,96.0
62.69,84.0
62.7,92.0
62.71,80.0
62.72,86.0
62.73,79.0
62.74,74.0
62.75,83.0
62.76,86.0
62.77,80.0
62.78,80.0
62.79,73.0
62.8,81.0
62.81,87.0
62.82,90.0
62.83,83.0
62.84,84.0
62.85,78.0
62.86,81.0
62.87,82.0
62.88,90.0
62.89,94.0
62.9,84.0
62.91,107.0
62.92,87.0
62.93,95.0
62.94,81.0
62.95,75.0
62.96,84.0
62.97,97.0
62.98,95.0
62.99,73.0
63.0,89.0
63.01,85.0
63.02,74.0
63.03,68.0
63.04,103.0
63.05,81.0
63.06,85.0
63.07,93.0
63.08,90.0
63.09,77.0
63.1,82.0
63.11,81.0
63.12,82.0
63.13,105.0
63.14,88.0
63.15,113.0
63.16,79.0
63.17,91.0
63.18,84.0
63.19,104.0
63.2,85.0
63.21,84.0
63.22,77.0
63.23,75.0
63.24,77.0
63.25,89.0
63.26,79.0
63.27,84.0
63.28,83.0
63.29,102.0
63.3,73.0
63.31,98.0
63.32,73.0
63.33,75.0
63.34,112.0
63.35,87.0
63.36,102.0
63.37,97.0
63.38,70.0
63.39,62.0
63.4,84.0
63.41,71.0
63.42,96.0
63.43,87.0
63.44,88.0
63.45,83.0
63.46,86.0
63.47,88.0
63.48,74.0
63.49,82.0
63.5,86.0
63.51,83.0
63.52,92.0
63.53,98.0
63.54,95.0
63.55,99.0
63.56,81.0
63.57,91.0
63.58,81.0
63.59,74.0
63.6,81.0
63.61,88.0
63.62,97.0
63.63,95.0
63.64,93.0
63.65,84.0
63.66,88.0
63.67,85.0
63.68,97.0
63.69,81.0
63.7,82.0
63.71,86.0
63.72,70.0
63.73,87.0
63.74,69.0
63.75,83.0
63.76,74.0
63.77,82.0
63.78,84.0
63.79,76.0
63.8,77.0
63.81,88.0
63.82,110.0
63.83,89.0
63.84,85.0
63.85,91.0
63.86,93.0
63.87,91.0
63.88,81.0
63.89,95.0
63.9,98.0
63.91,79.0
63.92,76.0
63.93,82.0
63.94,90.0
63.95,82.0
63.96,95.0
63.97,88.0
63.98,89.0
63.99,89.0
64.0,86.0
64.01,95.0
64.02,83.0
64.03,83.0
64.04,76.0
64.05,93.0
64.06,85.0
64.07,97.0
64.08,77.0
64.09,76.0
64.1,91.0
64.11,88.0
64.12,82.0
64.13,67.0
64.14,79.0
64.15,91.0
64.16,95.0
64.17,89.0
64.18,83.0
64.19,77.0
64.2,72.0
64.21,91.0
64.22,91.0
64.23,85.0
64.24,100.0
64.25,86.0
64.26,89.0
64.27,90.0
64.28,78.0
64.29,85.0
64.3,77.0
64.31,90.0
64.32,77.0
64.33,87.0
64.34,99.0
64.35,92.0
64.36,62.0
64.37,82.0
64.38,83.0
64.39,83.0
64.4,73.0
64.41,89.0
64.42,85.0
64.43,90.0
64.44,80.0
64.45,89.0
64.46,90.0
64.47,80.0
64.48,102.0
64.49,85.0
64.5,74.0
64.51,80.0
64.52,81.0
64.53,86.0
64.54,74.0
64.55,85.0
64.56,90.0
64.57,91.0
64.58,79.0
64.59,99.0
64.6,82.0
64.61,79.0
64.62,86.0
64.63,100.0
64.64,68.0
64.65,84.0
64.66,98.0
64.67,92.0
64.68,88.0
64.69,90.0
64.7,86.0
64.71,84.0
64.72,81.0
64.73,81.0
64.74,80.0
64.75,80.0
64.76,77.0
64.77,87.0
64.78,96.0
64.79,86.0
64.8,69.0
64.81,98.0
64.82,71.0
64.83,80.0
64.84,74.0
64.85,98.0
64.86,73.0
64.87,85.0
64.88,86.0
64.89,77.0
64.9,102.0
64.91,87.0
64.92,91.0
64.93,79.0
64.94,100.0
64.95,79.0
64.96,111.0
64.97,93.0
64.98,89.0
64.99,79.0
65.0,91.0
65.01,92.0
65.02,78.0
65.03,92.0
65.04,66.0
65.05,95.0
65.06,81.0
65.07,87.0
65.08,85.0
65.09,84.0
65.1,81.0
65.11,89.0
65.12,95.0
65.13,81.0
65.14,75.0
65.15,70.0
65.16,71.0
65.17,72.0
65.18,89.0
65.19,103.0
65.2,83.0
65.21,83.0
65.22,93.0
65.23,82.0
65.24,76.0
65.25,82.0
65.26,94.0
65.27,97.0
65.28,77.0
65.29,75.0
65.3,88.0
65.31,89.0
65.32,95.0
65.33,115.0
65.34,92.0
65.35,90.0
65.36,91.0
65.37,97.0
65.38,95.0
65.39,99.0
65.4,99.0
65.41,78.0
65.42,87.0
65.43,104.0
65.44,100.0
65.45,98.0
65.46,90.0
65.47,87.0
65.48,79.0
65.49,99.0
65.5,93.0
65.51,95.0
65.52,98.0
65.53,98.0
65.54,99.0
65.55,98.0
65.56,102.0
65.57,98.0
65.58,101.0
65.59,90.0
65.6,90.0
65.61,99.0
65.62,97.0
65.63,96.0
65.64,81.0
65.65,101.0
65.66,85.0
65.67,83.0
65.68,81.0
65.69,103.0
65.7,105.0
65.71,84.0
65.72,88.0
65.73,91.0
65.74,101.0
65.75,85.0
65.76,77.0
65.77,93.0
65.78,96.0
65.79,97.0
65.8,84.0
65.81,104.0
65.82,89.0
65.83,76.0
65.84,97.0
65.85,98.0
65.86,97.0
65.87,95.0
65.88,96.0
65.89,74.0
65.9,79.0
65.91,95.0
65.92,91.0
65.93,74.0
65.94,107.0
65.95,91.0
65.96,98.0
65.97,80.0
65.98,82.0
65.99,89.0
66.0,97.0
66.01,86.0
66.02,100.0
66.03,91.0
66.04,99.0
66.05,99.0
66.06,78.0
66.07,106.0
66.08,100.0
66.09,77.0
66.1,94.0
66.11,84.0
66.12,74.0
66.13,75.0
66.14,71.0
66.15,81.0
66.16,81.0
66.17,72.0
66.18,86.0
66.19,85.0
66.2,81.0
66.21,88.0
66.22,90.0
66.23,85.0
66.24,83.0
66.25,96.0
66.26,89.0
66.27,86.0
66.28,68.0
66.29,70.0
66.3,80.0
66.31,74.0
66.32,78.0
66.33,96.0
66.34,83.0
66.35,74.0
66.36,73.0
66.37,89.0
66.38,90.0
66.39,93.0
66.4,80.0
66.41,106.0
66.42,82.0
66.43,86.0
66.44,93.0
66.45,101.0
66.46,83.0
66.47,85.0
66.48,85.0
66.49,90.0
66.5,88.0
66.51,74.0
66.52,89.0
66.53,73.0
66.54,90.0
66.55,90.0
66.56,77.0
66.57,79.0
66.58,86.0
66.59,82.0
66.6,72.0
66.61,99.0
66.62,88.0
66.63,99.0
66.64,81.0
66.65,91.0
66.66,98.0
66.67,88.0
66.68,85.0
66.69,90.0
66.7,97.0
66.71,96.0
66.72,90.0
66.73,92.0
66.74,88.0
66.75,92.0
66.76,77.0
66.77,77.0
66.78,84.0
66.79,95.0
66.8,87.0
66.81,66.0
66.82,81.0
66.83,86.0
66.84,91.0
66.85,80.0
66.86,83.0
66.87,88.0
66.88,80.0
66.89,85.0
66.9,94.0
66.91,75.0
66.92,91.0
66.93,85.0
66.94,90.0
66.95,83.0
66.96,93.0
66.97,76.0
66.98,87.0
66.99,83.0
67.0,73.0
67.01,97.0
67.02,71.0
67.03,74.0
67.04,87.0
67.05,77.0
67.06,88.0
67.07,78.0
67.08,96.0
67.09,105.0
67.1,107.0
67.11,92.0
67.12,76.0
67.13,90.0
67.14,87.0
67.15,89.0
67.16,89.0
67.17,80.0
67.18,88.0
67.19,88.0
67.2,80.0
67.21,87.0
67.22,70.0
67.23,83.0
67.24,93.0
67.25,109.0
67.26,97.0
67.27,97.0
67.28,91.0
67.29,92.0
67.3,94.0
67.31,87.0
67.32,81.0
67.33,61.0
67.34,87.0
67.35,88.0
67.36,93.0
67.37,76.0
67.38,88.0
67.39,79.0
67.4,70.0
67.41,79.0
67.42,95.0
67.43,82.0
67.44,85.0
67.45,89.0
67.46,90.0
67.47,78.0
67.48,111.0
67.49,81.0
67.5,99.0
67.51,90.0
67.52,65.0
67.53,98.0
67.54,94.0
67.55,81.0
67.56,87.0
67.57,95.0
67.58,80.0
67.59,79.0
67.6,84.0
67.61,80.0
67.62,84.0
67.63,96.0
67.64,81.0
67.65,83.0
67.66,77.0
67.67,85.0
67.68,89.0
67.69,78.0
67.7,83.0
67.71,91.0
67.72,88.0
67.73,84.0
67.74,73.0
67.75,100.0
67.76,88.0
67.77,89.0
67.78,85.0
67.79,83.0
67.8,88.0
67.81,98.0
67.82,101.0
67.83,69.0
67.84,101.0
67.85,94.0
67.86,90.0
67.87,75.0
67.88,96.0
67.89,85.0
67.9,102.0
67.91,90.0
67.92,71.0
67.93,83.0
67.94,79.0
67.95,91.0
67.96,109.0
67.97,79.0
67.98,65.0
67.99,80.0
68.0,90.0
68.01,78.0
68.02,81.0
68.03,93.0
68.04,86.0
68.05,87.0
68.06,80.0
68.07,83.0
68.08,102.0
68.09,87.0
68.1,82.0
68.11,81.0
68.12,93.0
68.13,80.0
68.14,89.0
68.15,88.0
68.16,96.0
68.17,87.0
68.18,102.0
68.19,78.0
68.2,78.0
68.21,97.0
68.22,107.0
68.23,89.0
68.24,80.0
68.25,93.0
68.26,101.0
68.27,82.0
68.28,114.0
68.29,90.0
68.3,75.0
68.31,93.0
68.32,99.0
68.33,85.0
68.34,103.0
68.35,82.0
68.36,97.0
68.37,104.0
68.38,97.0
68.39,104.0
68.4,95.0
68.41,94.0
68.42,99.0
68.43,89.0
68.44,99.0
68.45,94.0
68.46,105.0
68.47,80.0
68.48,80.0
68.49,94.0
68.5,111.0
68.51,102.0
68.52,99.0
68.53,97.0
68.54,78.0
68.55,87.0
68.56,109.0
68.57,99.0
68.58,94.0
68.59,99.0
68.6,84.0
68.61,107.0
68.62,103.0
68.63,98.0
68.64,89.0
68.65,104.0
68.66,93.0
68.67,86.0
68.68,88.0
68.69,87.0
68.7,97.0
68.71,98.0
68.72,111.0
68.73,80.0
68.74,92.0
68.75,99.0
68.76,97.0
68.77,96.0
68.78,89.0
68.79,86.0
68.8,98.0
68.81,101.0
68.82,95.0
68.83,101.0
68.84,89.0
68.85,97.0
68.86,125.0
68.87,78.0
68.88,84.0
68.89,91.0
68.9,103.0
68.91,90.0
68.92,91.0
68.93,85.0
68.94,92.0
68.95,95.0
68.96,105.0
68.97,98.0
68.98,88.0
68.99,101.0
69.0,107.0
69.01,80.0
69.02,89.0
69.03,85.0
69.04,96.0
69.05,88.0
69.06,81.0
69.07,97.0
69.08,110.0
69.09,77.0
69.1,85.0
69.11,91.0
69.12,109.0
69.13,84.0
69.14,91.0
69.15,84.0
69.16,109.0
69.17,107.0
69.18,94.0
69.19,85.0
69.2,95.0
69.21,93.0
69.22,98.0
69.23,87.0
69.24,81.0
69.25,102.0
69.26,92.0
69.27,106.0
69.28,106.0
69.29,81.0
69.3,87.0
69.31,75.0
69.32,88.0
69.33,80.0
69.34,97.0
69.35,85.0
69.36,104.0
69.37,94.0
69.38,98.0
69.39,82.0
69.4,80.0
69.41,97.0
69.42,90.0
69.43,91.0
69.44,77.0
69.45,91.0
69.46,91.0
69.47,78.0
69.48,88.0
69.49,91.0
69.5,76.0
69.51,87.0
69.52,91.0
69.53,76.0
69.54,81.0
69.55,93.0
69.56,96.0
69.57,102.0
69.58,75.0
69.59,89.0
69.6,86.0
69.61,69.0
69.62,96.0
69.63,99.0
69.64,85.0
69.65,87.0
69.66,89.0
69.67,78.0
69.68,89.0
69.69,95.0
69.7,83.0
69.71,102.0
69.72,100.0
69.73,88.0
69.74,86.0
69.75,102.0
69.76,98.0
69.77,92.0
69.78,105.0
69.79,93.0
69.8,89.0
69.81,101.0
69.82,90.0
69.83,94.0
69.84,88.0
69.85,100.0
69.86,95.0
69.87,89.0
69.88,79.0
69.89,100.0
69.9,84.0
69.91,93.0
69.92,90.0
69.93,82.0
69.94,92.0
69.95,88.0
69.96,78.0
69.97,82.0
69.98,94.0
69.99,91.0
70.0,91.0
70.01,93.0
70.02,72.0
70.03,99.0
70.04,86.0
70.05,96.0
70.06,82.0
70.07,83.0
70.08,97.0
70.09,72.0
70.1,95.0
70.11,67.0
70.12,98.0
70.13,66.0
70.14,96.0
70.15,97.0
70.16,90.0
70.17,84.0
70.18,85.0
70.19,90.0
70.2,83.0
70.21,85.0
70.22,75.0
70.23,65.0
70.24,83.0
70.25,96.0
70.26,81.0
70.27,89.0
70.28,104.0
70.29,106.0
70.3,82.0
70.31,87.0
70.32,81.0
70.33,79.0
70.34,81.0
70.35,85.0
70.36,103.0
70.37,98.0
70.38,105.0
70.39,88.0
70.4,91.0
70.41,91.0
70.42,78.0
70.43,93.0
70.44,81.0
70.45,75.0
70.46,87.0
70.47,85.0
70.48,89.0
70.49,77.0
70.5,94.0
70.51,78.0
70.52,88.0
70.53,85.0
70.54,73.0
70.55,98.0
70.56,79.0
70.57,84.0
70.58,83.0
70.59,98.0
70.6,78.0
70.61,82.0
70.62,104.0
70.63,70.0
70.64,88.0
70.65,84.0
70.66,89.0
70.67,79.0
70.68,94.0
70.69,89.0
70.7,102.0
70.71,74.0
70.72,87.0
70.73,106.0
70.74,88.0
70.75,76.0
70.76,80.0
70.77,83.0
70.78,96.0
70.79,111.0
70.8,88.0
70.81,85.0
70.82,98.0
70.83,78.0
70.84,82.0
70.85,95.0
70.86,79.0
70.87,89.0
70.88,68.0
70.89,96.0
70.9,83.0
70.91,68.0
70.92,84.0
70.93,78.0
70.94,88.0
70.95,87.0
70.96,73.0
70.97,97.0
70.98,95.0
70.99,92.0
71.0,88.0
71.01,102.0
71.02,83.0
71.03,85.0
71.04,88.0
71.05,96.0
71.06,102.0
71.07,90.0
71.08,91.0
71.09,79.0
71.1,96.0
71.11,106.0
71.12,91.0
71.13,91.0
71.14,83.0
71.15,81.0
71.16,100.0
71.17,83.0
71.18,87.0
71.19,99.0
71.2,86.0
71.21,83.0
71.22,86.0
71.23,82.0
71.24,89.0
71.25,85.0
71.26,79.0
71.27,101.0
71.28,75.0
71.29,87.0
71.3,86.0
71.31,86.0
71.32,78.0
71.33,76.0
71.34,85.0
71.35,80.0
71.36,86.0
71.37,95.0
71.38,83.0
71.39,86.0
71.4,91.0
71.41,101.0
71.42,101.0
71.43,84.0
71.44,91.0
71.45,85.0
71.46,78.0
71.47,82.0
71.48,99.0
71.49,82.0
71.5,77.0
71.51,82.0
71.52,86.0
71.53,84.0
71.54,96.0
71.55,86.0
71.56,81.0
71.57,100.0
71.58,94.0
71.59,68.0
71.6,88.0
71.61,95.0
71.62,88.0
71.63,90.0
71.64,75.0
71.65,95.0
71.66,89.0
71.67,86.0
71.68,87.0
71.69,88.0
71.7,78.0
71.71,97.0
71.72,88.0
71.73,84.0
71.74,88.0
71.75,91.0
71.76,107.0
71.77,90.0
71.78,76.0
71.79,77.0
71.8,87.0
71.81,87.0
71.82,95.0
71.83,89.0
71.84,101.0
71.85,67.0
71.86,89.0
71.87,70.0
71.88,94.0
71.89,97.0
71.9,77.0
71.91,93.0
71.92,80.0
71.93,96.0
71.94,92.0
71.95,83.0
71.96,98.0
71.97,77.0
71.98,99.0
71.99,82.0
72.0,101.0
72.01,86.0
72.02,77.0
72.03,64.0
72.04,100.0
72.05,103.0
72.06,77.0
72.07,103.0
72.08,94.0
72.09,85.0
72.1,101.0
72.11,84.0
72.12,76.0
72.13,85.0
72.14,107.0
72.15,87.0
72.16,83.0
72.17,79.0
72.18,81.0
72.19,95.0
72.2,105.0
72.21,84.0
72.22,89.0
72.23,80.0
72.24,93.0
72.25,93.0
72.26,92.0
72.27,81.0
72.28,82.0
72.29,87.0
72.3,78.0
72.31,83.0
72.32,103.0
72.33,85.0
72.34,97.0
72.35,92.0
72.36,88.0
72.37,79.0
72.38,68.0
72.39,77.0
72.4,73.0
72.41,87.0
72.42,95.0
72.43,91.0
72.44,93.0
72.45,104.0
72.46,80.0
72.47,79.0
72.48,76.0
72.49,79.0
72.5,95.0
72.51,83.0
72.52,86.0
72.53,82.0
72.54,82.0
72.55,106.0
72.56,82.0
72.57,88.0
72.58,96.0
72.59,82.0
72.6,82.0
72.61,86.0
72.62,79.0
72.63,90.0
72.64,85.0
72.65,69.0
72.66,87.0
72.67,86.0
72.68,98.0
72.69,89.0
72.7,82.0
72.71,110.0
72.72,65.0
72.73,93.0
72.74,84.0
72.75,84.0
72.76,106.0
72.77,91.0
72.78,81.0
72.79,96.0
72.8,89.0
72.81,80.0
72.82,103.0
72.83,92.0
72.84,93.0
72.85,77.0
72.86,76.0
72.87,89.0
72.88,86.0
72.89,98.0
72.9,80.0
72.91,83.0
72.92,91.0
72.93,83.0
72.94,82.0
72.95,99.0
72.96,105.0
72.97,88.0
72.98,93.0
72.99,93.0
73.0,88.0
73.01,91.0
73.02,98.0
73.03,96.0
73.04,97.0
73.05,84.0
73.06,88.0
73.07,86.0
73.08,85.0
73.09,73.0
73.1,110.0
73.11,86.0
73.12,76.0
73.13,78.0
73.14,86.0
73.15,86.0
73.16,100.0
73.17,95.0
73.18,84.0
73.19,90.0
73.2,97.0
73.21,88.0
73.22,78.0
73.23,93.0
73.24,81.0
73.25,99.0
73.26,79.0
73.27,91.0
73.28,86.0
73.29,87.0
73.3,81.0
73.31,82.0
73.32,92.0
73.33,87.0
73.34,96.0
73.35,88.0
73.36,94.0
73.37,79.0
73.38,92.0
73.39,104.0
73.4,106.0
73.41,77.0
73.42,75.0
73.43,87.0
73.44,85.0
73.45,100.0
73.46,88.0
73.47,105.0
73.48,99.0
73.49,85.0
73.5,92.0
73.51,79.0
73.52,101.0
73.53,97.0
73.54,102.0
73.55,100.0
73.56,92.0
73.57,86.0
73.58,89.0
73.59,84.0
73.6,71.0
73.61,98.0
73.62,76.0
73.63,81.0
73.64,99.0
73.65,92.0
73.66,95.0
73.67,80.0
73.68,101.0
73.69,80.0
73.7,82.0
73.71,93.0
73.72,91.0
73.73,105.0
73.74,90.0
73.75,87.0
73.76,84.0
73.77,96.0
73.78,85.0
73.79,87.0
73.8,90.0
73.81,78.0
73.82,81.0
73.83,80.0
73.84,94.0
73.85,86.0
73.86,85.0
73.87,79.0
73.88,90.0
73.89,90.0
73.9,79.0
73.91,101.0
73.92,108.0
73.93,84.0
73.94,87.0
73.95,78.0
73.96,87.0
73.97,103.0
73.98,93.0
73.99,82.0
74.0,81.0
74.01,90.0
74.02,92.0
74.03,89.0
74.04,99.0
74.05,97.0
74.06,84.0
74.07,83.0
74.08,77.0
74.09,89.0
74.1,84.0
74.11,111.0
74.12,81.0
74.13,82.0
74.14,90.0
74.15,84.0
74.16,90.0
74.17,82.0
74.18,109.0
74.19,71.0
74.2,81.0
74.21,77.0
74.22,83.0
74.23,87.0
74.24,96.0
74.25,95.0
74.26,87.0
74.27,59.0
74.28,91.0
74.29,91.0
74.3,104.0
74.31,108.0
74.32,90.0
74.33,90.0
74.34,72.0
74.35,105.0
74.36,89.0
74.37,97.0
74.38,93.0
74.39,85.0
74.4,72.0
74.41,84.0
74.42,78.0
74.43,110.0
74.44,74.0
74.45,81.0
74.46,89.0
74.47,100.0
74.48,80.0
74.49,83.0
74.5,88.0
74.51,83.0
74.52,89.0
74.53,84.0
74.54,105.0
74.55,88.0
74.56,107.0
74.57,90.0
74.58,108.0
74.59,99.0
74.6,86.0
74.61,95.0
74.62,102.0
74.63,92.0
74.64,99.0
74.65,79.0
74.66,86.0
74.67,101.0
74.68,96.0
74.69,94.0
74.7,88.0
74.71,86.0
74.72,81.0
74.73,86.0
74.74,93.0
74.75,84.0
74.76,83.0
74.77,85.0
74.78,99.0
74.79,101.0
74.8,88.0
74.81,86.0
74.82,85.0
74.83,93.0
74.84,110.0
74.85,88.0
74.86,106.0
74.87,87.0
74.88,98.0
74.89,84.0
74.9,81.0
74.91,80.0
74.92,91.0
74.93,89.0
74.94,84.0
74.95,87.0
74.96,105.0
74.97,105.0
74.98,78.0
74.99,80.0
75.0,91.0
75.01,108.0
75.02,95.0
75.03,99.0
75.04,91.0
75.05,106.0
75.06,101.0
75.07,95.0
75.08,86.0
75.09,76.0
75.1,104.0
75.11,97.0
75.12,96.0
75.13,98.0
75.14,88.0
75.15,84.0
75.16,90.0
75.17,98.0
75.18,91.0
75.19,78.0
75.2,109.0
75.21,105.0
75.22,96.0
75.23,103.0
75.24,96.0
75.25,100.0
75.26,81.0
75.27,104.0
75.28,78.0
75.29,90.0
75.3,101.0
75.31,102.0
75.32,115.0
75.33,83.0
75.34,111.0
75.35,106.0
75.36,96.0
75.37,96.0
75.38,81.0
75.39,92.0
75.4,94.0
75.41,96.0
75.42,99.0
75.43,92.0
75.44,111.0
75.45,72.0
75.46,96.0
75.47,87.0
75.48,80.0
75.49,91.0
75.5,99.0
75.51,102.0
75.52,76.0
75.53,108.0
75.54,105.0
75.55,88.0
75.56,103.0
75.57,100.0
75.58,109.0
75.59,106.0
75.6,87.0
75.61,96.0
75.62,108.0
75.63,87.0
75.64,105.0
75.65,106.0
75.66,65.0
75.67,103.0
75.68,99.0
75.69,90.0
75.7,89.0
75.71,89.0
75.72,91.0
75.73,113.0
75.74,111.0
75.75,74.0
75.76,81.0
75.77,82.0
75.78,107.0
75.79,90.0
75.8,98.0
75.81,85.0
75.82,97.0
75.83,90.0
75.84,100.0
75.85,85.0
75.86,90.0
75.87,84.0
75.88,68.0
75.89,86.0
75.9,98.0
75.91,89.0
75.92,85.0
75.93,105.0
75.94,100.0
75.95,89.0
75.96,82.0
75.97,76.0
75.98,76.0
75.99,97.0
76.0,77.0
76.01,99.0
76.02,84.0
76.03,91.0
76.04,100.0
76.05,106.0
76.06,88.0
76.07,96.0
76.08,80.0
76.09,95.0
76.1,94.0
76.11,97.0
76.12,88.0
76.13,98.0
76.14,99.0
76.15,101.0
76.16,96.0
76.17,82.0
76.18,98.0
76.19,90.0
76.2,91.0
76.21,98.0
76.22,85.0
76.23,106.0
76.24,78.0
76.25,86.0
76.26,81.0
76.27,88.0
76.28,81.0
76.29,95.0
76.3,90.0
76.31,89.0
76.32,98.0
76.33,86.0
76.34,76.0
76.35,87.0
76.36,108.0
76.37,88.0
76.38,86.0
76.39,82.0
76.4,93.0
76.41,109.0
76.42,89.0
76.43,110.0
76.44,89.0
76.45,91.0
76.46,91.0
76.47,96.0
76.48,100.0
76.49,98.0
76.5,94.0
76.51,80.0
76.52,88.0
76.53,98.0
76.54,82.0
76.55,93.0
76.56,105.0
76.57,85.0
76.58,91.0
76.59,87.0
76.6,86.0
76.61,79.0
76.62,84.0
76.63,85.0
76.64,86.0
76.65,85.0
76.66,107.0
76.67,99.0
76.68,90.0
76.69,81.0
76.7,82.0
76.71,80.0
76.72,69.0
76.73,90.0
76.74,90.0
76.75,92.0
76.76,81.0
76.77,97.0
76.78,66.0
76.79,90.0
76.8,89.0
76.81,94.0
76.82,94.0
76.83,79.0
76.84,83.0
76.85,93.0
76.86,101.0
76.87,85.0
76.88,89.0
76.89,102.0
76.9,97.0
76.91,96.0
76.92,86.0
76.93,84.0
76.94,95.0
76.95,109.0
76.96,106.0
76.97,88.0
76.98,87.0
76.99,84.0
77.0,92.0
77.01,96.0
77.02,89.0
77.03,70.0
77.04,107.0
77.05,85.0
77.06,89.0
77.07,95.0
77.08,106.0
77.09,75.0
77.1,106.0
77.11,70.0
77.12,87.0
77.13,71.0
77.14,83.0
77.15,80.0
77.16,108.0
77.17,87.0
77.18,102.0
77.19,101.0
77.2,90.0
77.21,95.0
77.22,87.0
77.23,92.0
77.24,87.0
77.25,101.0
77.26,92.0
77.27,85.0
77.28,112.0
77.29,118.0
77.3,88.0
77.31,91.0
77.32,80.0
77.33,96.0
77.34,88.0
77.35,97.0
77.36,93.0
77.37,79.0
77.38,73.0
77.39,92.0
77.4,95.0
77.41,92.0
77.42,84.0
77.43,86.0
77.44,89.0
77.45,72.0
77.46,87.0
77.47,88.0
77.48,99.0
77.49,102.0
77.5,91.0
77.51,88.0
77.52,75.0
77.53,86.0
77.54,78.0
77.55,76.0
77.56,74.0
77.57,100.0
77.58,96.0
77.59,101.0
77.6,97.0
77.61,85.0
77.62,102.0
77.63,85.0
77.64,90.0
77.65,92.0
77.66,84.0
77.67,95.0
77.68,88.0
77.69,86.0
77.7,88.0
77.71,83.0
77.72,101.0
77.73,100.0
77.74,100.0
77.75,85.0
77.76,87.0
77.77,83.0
77.78,93.0
77.79,105.0
77.8,91.0
77.81,102.0
77.82,91.0
77.83,94.0
77.84,100.0
77.85,110.0
77.86,91.0
77.87,78.0
77.88,74.0
77.89,100.0
77.9,96.0
77.91,78.0
77.92,84.0
77.93,78.0
77.94,97.0
77.95,82.0
77.96,78.0
77.97,77.0
77.98,94.0
77.99,103.0
78.0,79.0
78.01,70.0
78.02,94.0
78.03,84.0
78.04,97.0
78.05,90.0
78.06,104.0
78.07,85.0
78.08,100.0
78.09,79.0
78.1,94.0
78.11,75.0
78.12,91.0
78.13,78.0
78.14,83.0
78.15,87.0
78.16,94.0
78.17,86.0
78.18,114.0
78.19,97.0
78.2,83.0
78.21,90.0
78.22,96.0
78.23,79.0
78.24,79.0
78.25,89.0
78.26,83.0
78.27,98.0
78.28,93.0
78.29,86.0
78.3,95.0
78.31,92.0
78.32,86.0
78.33,84.0
78.34,84.0
78.35,85.0
78.36,97.0
78.37,82.0
78.38,83.0
78.39,101.0
78.4,111.0
78.41,95.0
78.42,81.0
78.43,99.0
78.44,98.0
78.45,87.0
78.46,81.0
78.47,93.0
78.48,71.0
78.49,84.0
78.5,98.0
78.51,95.0
78.52,102.0
78.53,81.0
78.54,90.0
78.55,74.0
78.56,77.0
78.57,63.0
78.58,102.0
78.59,82.0
78.6,88.0
78.61,89.0
78.62,83.0
78.63,93.0
78.64,105.0
78.65,87.0
78.66,94.0
78.67,87.0
78.68,94.0
78.69,88.0
78.7,109.0
78.71,89.0
78.72,93.0
78.73,85.0
78.74,87.0
78.75,76.0
78.76,89.0
78.77,76.0
78.78,89.0
78.79,81.0
78.8,96.0
78.81,84.0
78.82,78.0
78.83,95.0
78.84,107.0
78.85,84.0
78.86,99.0
78.87,91.0
78.88,81.0
78.89,103.0
78.9,90.0
78.91,106.0
78.92,101.0
78.93,85.0
78.94,95.0
78.95,94.0
78.96,95.0
78.97,76.0
78.98,104.0
78.99,96.0
79.0,81.0
79.01,82.0
79.02,82.0
79.03,103.0
79.04,82.0
79.05,79.0
79.06,94.0
79.07,73.0
79.08,93.0
79.09,99.0
79.1,98.0
79.11,86.0
79.12,94.0
79.13,85.0
79.14,86.0
79.15,97.0
79.16,83.0
79.17,80.0
79.18,94.0
79.19,109.0
79.2,112.0
79.21,90.0
79.22,110.0
79.23,82.0
79.24,92.0
79.25,100.0
79.26,90.0
79.27,93.0
79.28,103.0
79.29,86.0
79.3,78.0
79.31,89.0
79.32,96.0
79.33,90.0
79.34,92.0
79.35,99.0
79.36,89.0
79.37,99.0
79.38,91.0
79.39,98.0
79.4,99.0
79.41,82.0
79.42,80.0
79.43,86.0
79.44,106.0
79.45,76.0
79.46,87.0
79.47,82.0
79.48,95.0
79.49,98.0
79.5,106.0
79.51,94.0
79.52,81.0
79.53,83.0
79.54,87.0
79.55,87.0
79.56,85.0
79.57,98.0
79.58,91.0
79.59,91.0
79.6,98.0
79.61,109.0
79.62,80.0
79.63,88.0
79.64,84.0
79.65,91.0
79.66,100.0
79.67,88.0
79.68,98.0
79.69,97.0
79.7,80.0
79.71,106.0
79.72,87.0
79.73,93.0
79.74,85.0
79.75,83.0
79.76,105.0
79.77,91.0
79.78,70.0
79.79,97.0
79.8,100.0
79.81,94.0
79.82,79.0
79.83,109.0
79.84,98.0
79.85,91.0
79.86,93.0
79.87,95.0
79.88,83.0
79.89,89.0
79.9,78.0
79.91,73.0
79.92,107.0
79.93,100.0
79.94,92.0
79.95,90.0
79.96,114.0
79.97,99.0
79.98,87.0
79.99,97.0
80.0,68.0
80.01,80.0
80.02,90.0
80.03,71.0
80.04,97.0
80.05,90.0
80.06,96.0
80.07,88.0
80.08,76.0
80.09,97.0
80.1,90.0
80.11,100.0
80.12,106.0
80.13,76.0
80.14,99.0
80.15,99.0
80.16,100.0
80.17,94.0
80.18,81.0
80.19,90.0
80.2,92.0
80.21,93.0
80.22,91.0
80.23,99.0
80.24,96.0
80.25,106.0
80.26,90.0
80.27,98.0
80.28,89.0
80.29,99.0
80.3,77.0
80.31,90.0
80.32,82.0
80.33,79.0
80.34,89.0
80.35,82.0
80.36,91.0
80.37,90.0
80.38,84.0
80.39,91.0
80.4,83.0
80.41,101.0
80.42,106.0
80.43,114.0
80.44,104.0
80.45,79.0
80.46,84.0
80.47,78.0
80.48,97.0
80.49,81.0
80.5,68.0
80.51,91.0
80.52,103.0
80.53,99.0
80.54,101.0
80.55,88.0
80.56,99.0
80.57,78.0
80.58,84.0
80.59,91.0
80.6,92.0
80.61,91.0
80.62,75.0
80.63,86.0
80.64,97.0
80.65,95.0
80.66,119.0
80.67,96.0
80.68,74.0
80.69,97.0
80.7,95.0
80.71,96.0
80.72,90.0
80.73,92.0
80.74,89.0
80.75,96.0
80.76,90.0
80.77,88.0
80.78,93.0
80.79,92.0
80.8,96.0
80.81,75.0
80.82,104.0
80.83,87.0
80.84,97.0
80.85,96.0
80.86,71.0
80.87,90.0
80.88,92.0
80.89,106.0
80.9,91.0
80.91,101.0
80.92,113.0
80.93,91.0
80.94,98.0
80.95,105.0
80.96,85.0
80.97,100.0
80.98,99.0
80.99,95.0
81.0,109.0
81.01,99.0
81.02,97.0
81.03,95.0
81.04,105.0
81.05,109.0
81.06,80.0
81.07,76.0
81.08,99.0
81.09,97.0
81.1,80.0
81.11,82.0
81.12,92.0
81.13,91.0
81.14,101.0
81.15,79.0
81.16,88.0
81.17,93.0
81.18,99.0
81.19,75.0
81.2,92.0
81.21,93.0
81.22,98.0
81.23,114.0
81.24,90.0
81.25,82.0
81.26,78.0
81.27,98.0
81.28,84.0
81.29,88.0
81.3,69.0
81.31,77.0
81.32,91.0
81.33,89.0
81.34,83.0
81.35,96.0
81.36,87.0
81.37,87.0
81.38,89.0
81.39,75.0
81.4,95.0
81.41,103.0
81.42,109.0
81.43,113.0
81.44,98.0
81.45,91.0
81.46,73.0
81.47,87.0
81.48,87.0
81.49,93.0
81.5,99.0
81.51,88.0
81.52,78.0
81.53,96.0
81.54,80.0
81.55,96.0
81.56,90.0
81.57,94.0
81.58,84.0
81.59,105.0
81.6,121.0
81.61,108.0
81.62,97.0
81.63,91.0
81.64,104.0
81.65,96.0
81.66,99.0
81.67,95.0
81.68,94.0
81.69,88.0
81.7,77.0
81.71,79.0
81.72,99.0
81.73,95.0
81.74,113.0
81.75,79.0
81.76,93.0
81.77,107.0
81.78,108.0
81.79,99.0
81.8,92.0
81.81,95.0
81.82,82.0
81.83,92.0
81.84,88.0
81.85,86.0
81.86,74.0
81.87,83.0
81.88,104.0
81.89,97.0
81.9,105.0
81.91,102.0
81.92,72.0
81.93,81.0
81.94,83.0
81.95,101.0
81.96,90.0
81.97,101.0
81.98,94.0
81.99,93.0
82.0,117.0
82.01,81.0
82.02,78.0
82.03,81.0
82.04,87.0
82.05,90.0
82.06,91.0
82.07,92.0
82.08,88.0
82.09,95.0
82.1,97.0
82.11,92.0
82.12,106.0
82.13,102.0
82.14,96.0
82.15,75.0
82.16,97.0
82.17,80.0
82.18,86.0
82.19,87.0
82.2,77.0
82.21,108.0
82.22,91.0
82.23,90.0
82.24,94.0
82.25,99.0
82.26,99.0
82.27,86.0
82.28,91.0
82.29,99.0
82.3,83.0
82.31,113.0
82.32,73.0
82.33,91.0
82.34,111.0
82.35,94.0
82.36,104.0
82.37,90.0
82.38,78.0
82.39,93.0
82.4,89.0
82.41,98.0
82.42,83.0
82.43,96.0
82.44,81.0
82.45,91.0
82.46,102.0
82.47,100.0
82.48,76.0
82.49,102.0
82.5,88.0
82.51,95.0
82.52,84.0
82.53,98.0
82.54,90.0
82.55,104.0
82.56,85.0
82.57,92.0
82.58,84.0
82.59,87.0
82.6,80.0
82.61,93.0
82.62,84.0
82.63,99.0
82.64,81.0
82.65,81.0
82.66,89.0
82.67,72.0
82.68,89.0
82.69,83.0
82.7,92.0
82.71,87.0
82.72,104.0
82.73,86.0
82.74,100.0
82.75,89.0
82.76,64.0
82.77,82.0
82.78,106.0
82.79,95.0
82.8,94.0
82.81,90.0
82.82,105.0
82.83,84.0
82.84,78.0
82.85,85.0
82.86,83.0
82.87,70.0
82.88,80.0
82.89,88.0
82.9,90.0
82.91,105.0
82.92,96.0
82.93,87.0
82.94,87.0
82.95,89.0
82.96,110.0
82.97,82.0
82.98,85.0
82.99,83.0
83.0,90.0
83.01,83.0
83.02,110.0
83.03,109.0
83.04,88.0
83.05,93.0
83.06,100.0
83.07,99.0
83.08,99.0
83.09,87.0
83.1,87.0
83.11,110.0
83.12,97.0
83.13,84.0
83.14,93.0
83.15,92.0
83.16,83.0
83.17,101.0
83.18,86.0
83.19,95.0
83.2,87.0
83.21,82.0
83.22,86.0
83.23,98.0
83.24,84.0
83.25,95.0
83.26,104.0
83.27,84.0
83.28,96.0
83.29,87.0
83.3,84.0
83.31,74.0
83.32,95.0
83.33,89.0
83.34,103.0
83.35,113.0
83.36,81.0
83.37,94.0
83.38,89.0
83.39,83.0
83.4,95.0
83.41,88.0
83.42,89.0
83.43,93.0
83.44,102.0
83.45,97.0
83.46,99.0
83.47,93.0
83.48,101.0
83.49,79.0
83.5,78.0
83.51,93.0
83.52,100.0
83.53,95.0
83.54,88.0
83.55,85.0
83.56,84.0
83.57,104.0
83.58,81.0
83.59,118.0
83.6,83.0
83.61,103.0
83.62,82.0
83.63,72.0
83.64,97.0
83.65,89.0
83.66,89.0
83.67,88.0
83.68,90.0
83.69,91.0
83.7,96.0
83.71,89.0
83.72,91.0
83.73,89.0
83.74,107.0
83.75,97.0
83.76,92.0
83.77,101.0
83.78,84.0
83.79,96.0
83.8,86.0
83.81,80.0
83.82,99.0
83.83,89.0
83.84,84.0
83.85,94.0
83.86,82.0
83.87,93.0
83.88,99.0
83.89,91.0
83.9,103.0
83.91,94.0
83.92,81.0
83.93,103.0
83.94,83.0
83.95,76.0
83.96,90.0
83.97,95.0
83.98,93.0
83.99,80.0
84.0,97.0
84.01,91.0
84.02,84.0
84.03,95.0
84.04,79.0
84.05,105.0
84.06,88.0
84.07,102.0
84.08,110.0
84.09,111.0
84.1,99.0
84.11,87.0
84.12,101.0
84.13,97.0
84.14,89.0
84.15,93.0
84.16,103.0
84.17,83.0
84.18,97.0
84.19,94.0
84.2,82.0
84.21,90.0
84.22,97.0
84.23,66.0
84.24,81.0
84.25,82.0
84.26,106.0
84.27,99.0
84.28,79.0
84.29,121.0
84.3,90.0
84.31,106.0
84.32,84.0
84.33,93.0
84.34,87.0
84.35,90.0
84.36,99.0
84.37,102.0
84.38,102.0
84.39,104.0
84.4,95.0
84.41,102.0
84.42,85.0
84.43,89.0
84.44,89.0
84.45,96.0
84.46,87.0
84.47,85.0
84.48,95.0
84.49,94.0
84.5,92.0
84.51,102.0
84.52,107.0
84.53,91.0
84.54,93.0
84.55,101.0
84.56,92.0
84.57,83.0
84.58,95.0
84.59,83.0
84.6,101.0
84.61,77.0
84.62,90.0
84.63,83.0
84.64,70.0
84.65,94.0
84.66,87.0
84.67,100.0
84.68,91.0
84.69,98.0
84.7,91.0
84.71,76.0
84.72,88.0
84.73,100.0
84.74,91.0
84.75,94.0
84.76,96.0
84.77,81.0
84.78,79.0
84.79,108.0
84.8,97.0
84.81,100.0
84.82,92.0
84.83,87.0
84.84,91.0
84.85,100.0
84.86,92.0
84.87,88.0
84.88,90.0
84.89,97.0
84.9,79.0
84.91,107.0
84.92,91.0
84.93,98.0
84.94,86.0
84.95,104.0
84.96,83.0
84.97,87.0
84.98,80.0
84.99,95.0
85.0,109.0
85.01,89.0
85.02,88.0
85.03,82.0
85.04,98.0
85.05,95.0
85.06,107.0
85.07,85.0
85.08,100.0
85.09,92.0
85.1,84.0
85.11,103.0
85.12,87.0
85.13,82.0
85.14,85.0
85.15,97.0
85.16,98.0
85.17,88.0
85.18,102.0
85.19,83.0
85.2,95.0
85.21,91.0
85.22,90.0
85.23,73.0
85.24,92.0
85.25,104.0
85.26,71.0
85.27,108.0
85.28,80.0
85.29,76.0
85.3,96.0
85.31,82.0
85.32,100.0
85.33,96.0
85.34,98.0
85.35,81.0
85.36,97.0
85.37,91.0
85.38,103.0
85.39,90.0
85.4,113.0
85.41,95.0
85.42,83.0
85.43,85.0
85.44,101.0
85.45,105.0
85.46,87.0
85.47,88.0
85.48,84.0
85.49,90.0
85.5,102.0
85.51,94.0
85.52,90.0
85.53,95.0
85.54,91.0
85.55,87.0
85.56,82.0
85.57,89.0
85.58,91.0
85.59,97.0
85.6,93.0
85.61,105.0
85.62,110.0
85.63,86.0
85.64,103.0
85.65,85.0
85.66,106.0
85.67,84.0
85.68,92.0
85.69,95.0
85.7,90.0
85.71,102.0
85.72,107.0
85.73,94.0
85.74,105.0
85.75,103.0
85.76,87.0
85.77,94.0
85.78,116.0
85.79,91.0
85.8,79.0
85.81,91.0
85.82,91.0
85.83,91.0
85.84,91.0
85.85,106.0
85.86,113.0
85.87,88.0
85.88,82.0
85.89,95.0
85.9,89.0
85.91,92.0
85.92,95.0
85.93,80.0
85.94,86.0
85.95,100.0
85.96,95.0
85.97,109.0
85.98,84.0
85.99,104.0
86.0,79.0
86.01,81.0
86.02,95.0
86.03,90.0
86.04,82.0
86.05,98.0
86.06,90.0
86.07,94.0
86.08,97.0
86.09,112.0
86.1,109.0
86.11,103.0
86.12,77.0
86.13,88.0
86.14,104.0
86.15,114.0
86.16,89.0
86.17,77.0
86.18,79.0
86.19,94.0
86.2,98.0
86.21,100.0
86.22,91.0
86.23,91.0
86.24,93.0
86.25,77.0
86.26,96.0
86.27,88.0
86.28,115.0
86.29,84.0
86.3,100.0
86.31,99.0
86.32,90.0
86.33,105.0
86.34,70.0
86.35,110.0
86.36,94.0
86.37,82.0
86.38,95.0
86.39,102.0
86.4,87.0
86.41,80.0
86.42,97.0
86.43,94.0
86.44,95.0
86.45,86.0
86.46,105.0
86.47,98.0
86.48,96.0
86.49,102.0
86.5,97.0
86.51,74.0
86.52,104.0
86.53,95.0
86.54,94.0
86.55,93.0
86.56,98.0
86.57,89.0
86.58,104.0
86.59,101.0
86.6,101.0
86.61,104.0
86.62,79.0
86.63,96.0
86.64,101.0
86.65,93.0
86.66,95.0
86.67,106.0
86.68,76.0
86.69,77.0
86.7,101.0
86.71,91.0
86.72,115.0
86.73,97.0
86.74,87.0
86.75,95.0
86.76,91.0
86.77,95.0
86.78,115.0
86.79,98.0
86.8,100.0
86.81,90.0
86.82,92.0
86.83,101.0
86.84,107.0
86.85,90.0
86.86,96.0
86.87,111.0
86.88,117.0
86.89,99.0
86.9,113.0
86.91,115.0
86.92,96.0
86.93,103.0
86.94,110.0
86.95,92.0
86.96,100.0
86.97,106.0
86.98,104.0
86.99,97.0
87.0,94.0
87.01,110.0
87.02,106.0
87.03,98.0
87.04,89.0
87.05,97.0
87.06,113.0
87.07,112.0
87.08,101.0
87.09,95.0
87.1,105.0
87.11,104.0
87.12,106.0
87.13,115.0
87.14,98.0
87.15,119.0
87.16,107.0
87.17,96.0
87.18,112.0
87.19,117.0
87.2,103.0
87.21,105.0
87.22,130.0
87.23,112.0
87.24,120.0
87.25,100.0
87.26,98.0
87.27,92.0
87.28,106.0
87.29,89.0
87.3,107.0
87.31,98.0
87.32,105.0
87.33,85.0
87.34,120.0
87.35,107.0
87.36,117.0
87.37,93.0
87.38,114.0
87.39,106.0
87.4,118.0
87.41,106.0
87.42,122.0
87.43,101.0
87.44,120.0
87.45,109.0
87.46,119.0
87.47,97.0
87.48,127.0
87.49,100.0
87.5,96.0
87.51,146.0
87.52,111.0
87.53,105.0
87.54,109.0
87.55,94.0
87.56,84.0
87.57,109.0
87.58,92.0
87.59,105.0
87.6,96.0
87.61,92.0
87.62,105.0
87.63,106.0
87.64,100.0
87.65,115.0
87.66,114.0
87.67,105.0
87.68,107.0
87.69,111.0
87.7,109.0
87.71,96.0
87.72,101.0
87.73,93.0
87.74,107.0
87.75,91.0
87.76,107.0
87.77,88.0
87.78,94.0
87.79,98.0
87.8,104.0
87.81,107.0
87.82,97.0
87.83,112.0
87.84,97.0
87.85,93.0
87.86,108.0
87.87,100.0
87.88,113.0
87.89,103.0
87.9,120.0
87.91,97.0
87.92,96.0
87.93,91.0
87.94,103.0
87.95,89.0
87.96,92.0
87.97,98.0
87.98,93.0
87.99,89.0
88.0,91.0
88.01,79.0
88.02,90.0
88.03,98.0
88.04,115.0
88.05,98.0
88.06,93.0
88.07,100.0
88.08,89.0
88.09,109.0
88.1,102.0
88.11,87.0
88.12,91.0
88.13,101.0
88.14,110.0
88.15,107.0
88.16,100.0
88.17,83.0
88.18,105.0
88.19,89.0
88.2,112.0
88.21,119.0
88.22,98.0
88.23,104.0
88.24,94.0
88.25,94.0
88.26,98.0
88.27,103.0
88.28,68.0
88.29,109.0
88.3,107.0
88.31,91.0
88.32,94.0
88.33,108.0
88.34,93.0
88.35,98.0
88.36,89.0
88.37,97.0
88.38,85.0
88.39,99.0
88.4,100.0
88.41,101.0
88.42,105.0
88.43,94.0
88.44,87.0
88.45,97.0
88.46,112.0
88.47,94.0
88.48,96.0
88.49,82.0
88.5,113.0
88.51,96.0
88.52,91.0
88.53,117.0
88.54,96.0
88.55,92.0
88.56,92.0
88.57,92.0
88.58,95.0
88.59,99.0
88.6,100.0
88.61,89.0
88.62,91.0
88.63,107.0
88.64,83.0
88.65,82.0
88.66,115.0
88.67,91.0
88.68,110.0
88.69,99.0
88.7,102.0
88.71,93.0
88.72,95.0
88.73,110.0
88.74,99.0
88.75,85.0
88.76,106.0
88.77,91.0
88.78,98.0
88.79,97.0
88.8,100.0
88.81,101.0
88.82,99.0
88.83,99.0
88.84,96.0
88.85,100.0
88.86,112.0
88.87,87.0
88.88,97.0
88.89,82.0
88.9,90.0
88.91,87.0
88.92,102.0
88.93,116.0
88.94,88.0
88.95,89.0
88.96,100.0
88.97,98.0
88.98,88.0
88.99,99.0
89.0,88.0
89.01,102.0
89.02,92.0
89.03,95.0
89.04,92.0
89.05,101.0
89.06,97.0
89.07,94.0
89.08,88.0
89.09,90.0
89.1,98.0
89.11,107.0
89.12,90.0
89.13,91.0
89.14,86.0
89.15,103.0
89.16,94.0
89.17,80.0
89.18,103.0
89.19,104.0
89.2,74.0
89.21,74.0
89.22,105.0
89.23,100.0
89.24,101.0
89.25,86.0
89.26,78.0
89.27,71.0
89.28,99.0
89.29,98.0
89.3,97.0
89.31,79.0
89.32,81.0
89.33,85.0
89.34,109.0
89.35,108.0
89.36,93.0
89.37,95.0
89.38,101.0
89.39,113.0
89.4,94.0
89.41,96.0
89.42,81.0
89.43,91.0
89.44,79.0
89.45,91.0
89.46,112.0
89.47,92.0
89.48,100.0
89.49,102.0
89.5,84.0
89.51,80.0
89.52,86.0
89.53,89.0
89.54,85.0
89.55,87.0
89.56,95.0
89.57,104.0
89.58,89.0
89.59,114.0
89.6,92.0
89.61,78.0
89.62,95.0
89.63,99.0
89.64,97.0
89.65,90.0
89.66,100.0
89.67,96.0
89.68,83.0
89.69,95.0
89.7,99.0
89.71,97.0
89.72,116.0
89.73,88.0
89.74,93.0
89.75,83.0
89.76,104.0
89.77,96.0
89.78,113.0
89.79,105.0
89.8,84.0
89.81,104.0
89.82,116.0
89.83,93.0
89.84,82.0
89.85,101.0
89.86,86.0
89.87,110.0
89.88,93.0
89.89,105.0
89.9,89.0
89.91,89.0
89.92,92.0
89.93,76.0
89.94,93.0
89.95,90.0
89.96,101.0
89.97,111.0
89.98,101.0
89.99,96.0
90.0,89.0
