angle,intensity
5.0,100.0
5.01,95.0
5.02,90.0
5.03,94.0
5.04,82.0
5.05,96.0
5.06,94.0
5.07,83.0
5.08,104.0
5.09,113.0
5.1,104.0
5.11,101.0
5.12,99.0
5.13,91.0
5.14,77.0
5.15,99.0
5.16,98.0
5.17,94.0
5.18,86.0
5.19,79.0
5.2,91.0
5.21,93.0
5.22,90.0
5.23,101.0
5.24,85.0
5.25,93.0
5.26,86.0
5.27,102.0
5.28,92.0
5.29,91.0
5.3,89.0
5.31,97.0
5.32,99.0
5.33,106.0
5.34,87.0
5.35,87.0
5.36,87.0
5.37,91.0
5.38,96.0
5.39,86.0
5.4,74.0
5.41,99.0
5.42,92.0
5.43,84.0
5.44,93.0
5.45,80.0
5.46,76.0
5.47,113.0
5.48,88.0
5.49,84.0
5.5,102.0
5.51,82.0
5.52,96.0
5.53,90.0
5.54,89.0
5.55,107.0
5.56,89.0
5.57,86.0
5.58,95.0
5.59,118.0
5.6,102.0
5.61,88.0
5.62,77.0
5.63,78.0
5.64,106.0
5.65,90.0
5.66,88.0
5.67,106.0
5.68,85.0
5.69,85.0
5.7,101.0
5.71,115.0
5.72,100.0
5.73,86.0
5.74,99.0
5.75,98.0
5.76,118.0
5.77,113.0
5.78,95.0
5.79,100.0
5.8,92.0
5.81,92.0
5.82,93.0
5.83,88.0
5.84,89.0
5.85,98.0
5.86,98.0
5.87,106.0
5.88,101.0
5.89,102.0
5.9,116.0
5.91,98.0
5.92,93.0
5.93,96.0
5.94,82.0
5.95,94.0
5.96,96.0
5.97,81.0
5.98,104.0
5.99,102.0
6.0,86.0
6.01,93.0
6.02,83.0
6.03,100.0
6.04,100.0
6.05,90.0
6.06,81.0
6.07,106.0
6.08,89.0
6.09,79.0
6.1,94.0
6.11,98.0
6.12,100.0
6.13,98.0
6.14,77.0
6.15,89.0
6.16,84.0
6.17,100.0
6.18,85.0
6.19,103.0
6.2,99.0
6.21,101.0
6.22,110.0
6.23,87.0
6.24,70.0
6.25,105.0
6.26,96.0
6.27,92.0
6.28,79.0
6.29,112.0
6.3,83.0
6.31,94.0
6.32,88.0
6.33,78.0
6.34,94.0
6.35,102.0
6.36,93.0
6.37,83.0
6.38,86.0
6.39,99.0
6.4,105.0
6.41,99.0
6.42,100.0
6.43,70.0
6.44,96.0
6.45,104.0
6.46,93.0
6.47,105.0
6.48,89.0
6.49,105.0
6.5,93.0
6.51,101.0
6.52,98.0
6.53,92.0
6.54,96.0
6.55,106.0
6.56,86.0
6.57,107.0
6.58,109.0
6.59,103.0
6.6,96.0
6.61,77.0
6.62,102.0
6.63,109.0
6.64,78.0
6.65,106.0
6.66,102.0
6.67,100.0
6.68,113.0
6.69,91.0
6.7,117.0
6.71,101.0
6.72,96.0
6.73,106.0
6.74,103.0
6.75,85.0
6.76,107.0
6.77,108.0
6.78,86.0
6.79,88.0
6.8,86.0
6.81,95.0
6.82,109.0
6.83,110.0
6.84,106.0
6.85,98.0
6.86,82.0
6.87,104.0
6.88,109.0
6.89,91.0
6.9,106.0
6.91,105.0
6.92,116.0
6.93,113.0
6.94,111.0
6.95,94.0
6.96,104.0
6.97,80.0
6.98,93.0
6.99,94.0
7.0,82.0
7.01,99.0
7.02,99.0
7.03,84.0
7.04,96.0
7.05,104.0
7.06,105.0
7.07,91.0
7.08,106.0
7.09,117.0
7.1,112.0
7.11,117.0
7.12,95.0
7.13,99.0
7.14,87.0
7.15,98.0
7.16,101.0
7.17,94.0
7.18,99.0
7.19,98.0
7.2,90.0
7.21,86.0
7.22,92.0
7.23,105.0
7.24,94.0
7.25,101.0
7.26,103.0
7.27,120.0
7.28,90.0
7.29,77.0
7.3,100.0
7.31,99.0
7.32,98.0
7.33,96.0
7.34,108.0
7.35,96.0
7.36,100.0
7.37,102.0
7.38,109.0
7.39,95.0
7.4,122.0
7.41,129.0
7.42,91.0
7.43,108.0
7.44,101.0
7.45,96.0
7.46,103.0
7.47,98.0
7.48,81.0
7.49,114.0
7.5,110.0
7.51,98.0
7.52,102.0
7.53,95.0
7.54,95.0
7.55,91.0
7.56,89.0
7.57,102.0
7.58,96.0
7.59,115.0
7.6,100.0
7.61,96.0
7.62,97.0
7.63,85.0
7.64,99.0
7.65,98.0
7.66,82.0
7.67,101.0
7.68,85.0
7.69,97.0
7.7,92.0
7.71,102.0
7.72,83.0
7.73,108.0
7.74,113.0
7.75,93.0
7.76,80.0
7.77,100.0
7.78,100.0
7.79,80.0
7.8,111.0
7.81,107.0
7.82,93.0
7.83,92.0
7.84,104.0
7.85,115.0
7.86,96.0
7.87,78.0
7.88,101.0
7.89,95.0
7.9,90.0
7.91,95.0
7.92,86.0
7.93,90.0
7.94,93.0
7.95,82.0
7.96,113.0
7.97,83.0
7.98,109.0
7.99,106.0
8.0,97.0
8.01,92.0
8.02,119.0
8.03,98.0
8.04,110.0
8.05,104.0
8.06,100.0
8.07,108.0
8.08,91.0
8.09,108.0
8.1,90.0
8.11,99.0
8.12,109.0
8.13,104.0
8.14,89.0
8.15,104.0
8.16,97.0
8.17,99.0
8.18,94.0
8.19,101.0
8.2,108.0
8.21,113.0
8.22,93.0
8.23,83.0
8.24,104.0
8.25,84.0
8.26,108.0
8.27,80.0
8.28,105.0
8.29,97.0
8.3,79.0
8.31,91.0
8.32,94.0
8.33,107.0
8.34,108.0
8.35,92.0
8.36,108.0
8.37,92.0
8.38,81.0
8.39,88.0
8.4,104.0
8.41,91.0
8.42,86.0
8.43,89.0
8.44,99.0
8.45,86.0
8.46,103.0
8.47,107.0
8.48,112.0
8.49,79.0
8.5,89.0
8.51,95.0
8.52,93.0
8.53,92.0
8.54,108.0
8.55,105.0
8.56,93.0
8.57,88.0
8.58,93.0
8.59,101.0
8.6,87.0
8.61,100.0
8.62,99.0
8.63,97.0
8.64,110.0
8.65,104.0
8.66,108.0
8.67,93.0
8.68,94.0
8.69,102.0
8.7,103.0
8.71,91.0
8.72,89.0
8.73,105.0
8.74,98.0
8.75,93.0
8.76,95.0
8.77,92.0
8.78,108.0
8.79,89.0
8.8,102.0
8.81,99.0
8.82,84.0
8.83,98.0
8.84,102.0
8.85,106.0
8.86,105.0
8.87,91.0
8.88,84.0
8.89,115.0
8.9,89.0
8.91,86.0
8.92,90.0
8.93,100.0
8.94,98.0
8.95,96.0
8.96,103.0
8.97,84.0
8.98,91.0
8.99,96.0
9.0,101.0
9.01,105.0
9.02,82.0
9.03,112.0
9.04,92.0
9.05,92.0
9.06,79.0
9.07,84.0
9.08,110.0
9.09,111.0
9.1,95.0
9.11,87.0
9.12,95.0
9.13,91.0
9.14,87.0
9.15,98.0
9.16,88.0
9.17,90.0
9.18,101.0
9.19,87.0
9.2,124.0
9.21,93.0
9.22,88.0
9.23,108.0
9.24,110.0
9.25,105.0
9.26,91.0
9.27,92.0
9.28,98.0
9.29,73.0
9.3,82.0
9.31,81.0
9.32,97.0
9.33,98.0
9.34,92.0
9.35,91.0
9.36,108.0
9.37,103.0
9.38,98.0
9.39,92.0
9.4,78.0
9.41,85.0
9.42,104.0
9.43,107.0
9.44,96.0
9.45,94.0
9.46,102.0
9.47,71.0
9.48,95.0
9.49,105.0
9.5,94.0
9.51,92.0
9.52,109.0
9.53,91.0
9.54,100.0
9.55,87.0
9.56,96.0
9.57,112.0
9.58,103.0
9.59,95.0
9.6,97.0
9.61,101.0
9.62,99.0
9.63,93.0
9.64,96.0
9.65,128.0
9.66,86.0
9.67,80.0
9.68,107.0
9.69,95.0
9.7,104.0
9.71,71.0
9.72,99.0
9.73,95.0
9.74,101.0
9.75,98.0
9.76,99.0
9.77,103.0
9.78,84.0
9.79,91.0
9.8,96.0
9.81,99.0
9.82,106.0
9.83,79.0
9.84,96.0
9.85,94.0
9.86,105.0
9.87,106.0
9.88,91.0
9.89,85.0
9.9,96.0
9.91,99.0
9.92,90.0
9.93,94.0
9.94,95.0
9.95,77.0
9.96,84.0
9.97,97.0
9.98,101.0
9.99,92.0
10.0,85.0
10.01,88.0
10.02,109.0
10.03,86.0
10.04,90.0
10.05,105.0
10.06,99.0
10.07,110.0
10.08,80.0
10.09,103.0
10.1,120.0
10.11,100.0
10.12,91.0
10.13,93.0
10.14,98.0
10.15,91.0
10.16,92.0
10.17,121.0
10.18,97.0
10.19,102.0
10.2,107.0
10.21,90.0
10.22,86.0
10.23,94.0
10.24,113.0
10.25,90.0
10.26,87.0
10.27,104.0
10.28,103.0
10.29,101.0
10.3,103.0
10.31,99.0
10.32,120.0
10.33,93.0
10.34,91.0
10.35,107.0
10.36,95.0
10.37,111.0
10.38,108.0
10.39,88.0
10.4,92.0
10.41,88.0
10.42,100.0
10.43,96.0
10.44,77.0
10.45,116.0
10.46,106.0
10.47,95.0
10.48,108.0
10.49,87.0
10.5,100.0
10.51,95.0
10.52,98.0
10.53,92.0
10.54,88.0
10.55,104.0
10.56,90.0
10.57,98.0
10.58,108.0
10.59,89.0
10.6,76.0
10.61,106.0
10.62,111.0
10.63,116.0
10.64,111.0
10.65,104.0
10.66,86.0
10.67,85.0
10.68,92.0
10.69,95.0
10.7,90.0
10.71,89.0
10.72,104.0
10.73,117.0
10.74,73.0
10.75,94.0
10.76,107.0
10.77,82.0
10.78,85.0
10.79,96.0
10.8,108.0
10.81,102.0
10.82,95.0
10.83,86.0
10.84,89.0
10.85,89.0
10.86,86.0
10.87,95.0
10.88,91.0
10.89,94.0
10.9,93.0
10.91,83.0
10.92,103.0
10.93,97.0
10.94,125.0
10.95,101.0
10.96,109.0
10.97,88.0
10.98,102.0
10.99,103.0
11.0,85.0
11.01,114.0
11.02,102.0
11.03,100.0
11.04,108.0
11.05,106.0
11.06,101.0
11.07,92.0
11.08,90.0
11.09,98.0
11.1,95.0
11.11,100.0
11.12,97.0
11.13,106.0
11.14,111.0
11.15,103.0
11.16,93.0
11.17,83.0
11.18,90.0
11.19,76.0
11.2,104.0
11.21,110.0
11.22,92.0
11.23,90.0
11.24,107.0
11.25,93.0
11.26,85.0
11.27,90.0
11.28,112.0
11.29,83.0
11.3,109.0
11.31,91.0
11.32,90.0
11.33,73.0
11.34,115.0
11.35,117.0
11.36,103.0
11.37,84.0
11.38,91.0
11.39,96.0
11.4,70.0
11.41,97.0
11.42,81.0
11.43,104.0
11.44,106.0
11.45,84.0
11.46,102.0
11.47,103.0
11.48,111.0
11.49,88.0
11.5,78.0
11.51,95.0
11.52,93.0
11.53,84.0
11.54,87.0
11.55,87.0
11.56,89.0
11.57,102.0
11.58,105.0
11.59,94.0
11.6,97.0
11.61,93.0
11.62,90.0
11.63,90.0
11.64,90.0
11.65,89.0
11.66,91.0
11.67,105.0
11.68,85.0
11.69,97.0
11.7,107.0
11.71,95.0
11.72,103.0
11.73,85.0
11.74,90.0
11.75,108.0
11.76,109.0
11.77,103.0
11.78,108.0
11.79,76.0
11.8,95.0
11.81,102.0
11.82,88.0
11.83,92.0
11.84,91.0
11.85,107.0
11.86,98.0
11.87,82.0
11.88,95.0
11.89,95.0
11.9,96.0
11.91,94.0
11.92,97.0
11.93,96.0
11.94,95.0
11.95,69.0
11.96,95.0
11.97,86.0
11.98,95.0
11.99,82.0
12.0,97.0
12.01,86.0
12.02,89.0
12.03,98.0
12.04,122.0
12.05,117.0
12.06,100.0
12.07,116.0
12.08,85.0
12.09,109.0
12.1,101.0
12.11,96.0
12.12,96.0
12.13,105.0
12.14,75.0
12.15,89.0
12.16,83.0
12.17,91.0
12.18,93.0
12.19,108.0
12.2,90.0
12.21,98.0
12.22,97.0
12.23,86.0
12.24,101.0
12.25,90.0
12.26,123.0
12.27,108.0
12.28,88.0
12.29,90.0
12.3,93.0
12.31,74.0
12.32,94.0
12.33,102.0
12.34,99.0
12.35,114.0
12.36,80.0
12.37,94.0
12.38,92.0
12.39,121.0
12.4,89.0
12.41,103.0
12.42,103.0
12.43,82.0
12.44,106.0
12.45,107.0
12.46,102.0
12.47,98.0
12.48,106.0
12.49,102.0
12.5,104.0
12.51,108.0
12.52,99.0
12.53,87.0
12.54,80.0
12.55,90.0
12.56,104.0
12.57,101.0
12.58,103.0
12.59,103.0
12.6,84.0
12.61,97.0
12.62,101.0
12.63,109.0
12.64,102.0
12.65,115.0
12.66,89.0
12.67,89.0
12.68,96.0
12.69,105.0
12.7,93.0
12.71,89.0
12.72,93.0
12.73,116.0
12.74,108.0
12.75,95.0
12.76,91.0
12.77,98.0
12.78,108.0
12.79,102.0
12.8,95.0
12.81,99.0
12.82,107.0
12.83,89.0
12.84,96.0
12.85,120.0
12.86,86.0
12.87,83.0
12.88,106.0
12.89,87.0
12.9,95.0
12.91,100.0
12.92,100.0
12.93,90.0
12.94,98.0
12.95,110.0
12.96,90.0
12.97,97.0
12.98,106.0
12.99,91.0
13.0,88.0
13.01,87.0
13.02,109.0
13.03,88.0
13.04,100.0
13.05,102.0
13.06,124.0
13.07,123.0
13.08,109.0
13.09,90.0
13.1,84.0
13.11,82.0
13.12,90.0
13.13,99.0
13.14,85.0
13.15,90.0
13.16,96.0
13.17,110.0
13.18,93.0
13.19,88.0
13.2,105.0
13.21,103.0
13.22,101.0
13.23,111.0
13.24,80.0
13.25,90.0
13.26,108.0
13.27,98.0
13.28,91.0
13.29,88.0
13.3,114.0
13.31,92.0
13.32,103.0
13.33,88.0
13.34,98.0
13.35,116.0
13.36,100.0
13.37,100.0
13.38,90.0
13.39,114.0
13.4,101.0
13.41,96.0
13.42,81.0
13.43,108.0
13.44,100.0
13.45,84.0
13.46,83.0
13.47,91.0
13.48,92.0
13.49,102.0
13.5,107.0
13.51,110.0
13.52,91.0
13.53,94.0
13.54,83.0
13.55,111.0
13.56,81.0
13.57,95.0
13.58,97.0
13.59,98.0
13.6,99.0
13.61,103.0
13.62,92.0
13.63,101.0
13.64,98.0
13.65,89.0
13.66,106.0
13.67,105.0
13.68,95.0
13.69,85.0
13.7,105.0
13.71,106.0
13.72,85.0
13.73,106.0
13.74,98.0
13.75,88.0
13.76,93.0
13.77,96.0
13.78,85.0
13.79,97.0
13.8,103.0
13.81,94.0
13.82,90.0
13.83,95.0
13.84,101.0
13.85,85.0
13.86,93.0
13.87,87.0
13.88,83.0
13.89,96.0
13.9,98.0
13.91,96.0
13.92,85.0
13.93,101.0
13.94,90.0
13.95,81.0
13.96,105.0
13.97,102.0
13.98,98.0
13.99,80.0
14.0,97.0
14.01,96.0
14.02,100.0
14.03,93.0
14.04,86.0
14.05,93.0
14.06,106.0
14.07,100.0
14.08,96.0
14.09,105.0
14.1,92.0
14.11,84.0
14.12,90.0
14.13,104.0
14.14,85.0
14.15,102.0
14.16,95.0
14.17,75.0
14.18,86.0
14.19,103.0
14.2,95.0
14.21,101.0
14.22,89.0
14.23,90.0
14.24,112.0
14.25,96.0
14.26,82.0
14.27,107.0
14.28,89.0
14.29,103.0
14.3,117.0
14.31,95.0
14.32,96.0
14.33,104.0
14.34,93.0
14.35,102.0
14.36,91.0
14.37,87.0
14.38,82.0
14.39,97.0
14.4,102.0
14.41,117.0
14.42,91.0
14.43,76.0
14.44,100.0
14.45,90.0
14.46,122.0
14.47,93.0
14.48,93.0
14.49,97.0
14.5,95.0
14.51,76.0
14.52,88.0
14.53,99.0
14.54,79.0
14.55,92.0
14.56,99.0
14.57,96.0
14.58,91.0
14.59,96.0
14.6,91.0
14.61,93.0
14.62,117.0
14.63,91.0
14.64,99.0
14.65,95.0
14.66,91.0
14.67,103.0
14.68,96.0
14.69,95.0
14.7,103.0
14.71,81.0
14.72,113.0
14.73,94.0
14.74,85.0
14.75,105.0
14.76,92.0
14.77,103.0
14.78,91.0
14.79,73.0
14.8,106.0
14.81,103.0
14.82,91.0
14.83,88.0
14.84,99.0
14.85,99.0
14.86,92.0
14.87,97.0
14.88,89.0
14.89,98.0
14.9,94.0
14.91,102.0
14.92,106.0
14.93,90.0
14.94,92.0
14.95,96.0
14.96,108.0
14.97,98.0
14.98,104.0
14.99,93.0
15.0,85.0
15.01,86.0
15.02,96.0
15.03,95.0
15.04,93.0
15.05,80.0
15.06,89.0
15.07,98.0
15.08,83.0
15.09,109.0
15.1,91.0
15.11,95.0
15.12,79.0
15.13,93.0
15.14,113.0
15.15,80.0
15.16,94.0
15.17,99.0
15.18,83.0
15.19,90.0
15.2,127.0
15.21,94.0
15.22,89.0
15.23,98.0
15.24,98.0
15.25,80.0
15.26,96.0
15.27,91.0
15.28,92.0
15.29,101.0
15.3,100.0
15.31,105.0
15.32,97.0
15.33,96.0
15.34,97.0
15.35,96.0
15.36,100.0
15.37,88.0
15.38,80.0
15.39,96.0
15.4,90.0
15.41,97.0
15.42,98.0
15.43,98.0
15.44,94.0
15.45,103.0
15.46,87.0
15.47,96.0
15.48,100.0
15.49,85.0
15.5,99.0
15.51,83.0
15.52,102.0
15.53,85.0
15.54,114.0
15.55,104.0
15.56,81.0
15.57,100.0
15.58,100.0
15.59,113.0
15.6,113.0
15.61,105.0
15.62,92.0
15.63,83.0
15.64,89.0
15.65,106.0
15.66,104.0
15.67,97.0
15.68,90.0
15.69,84.0
15.7,98.0
15.71,89.0
15.72,101.0
15.73,126.0
15.74,97.0
15.75,113.0
15.76,90.0
15.77,90.0
15.78,110.0
15.79,104.0
15.8,100.0
15.81,96.0
15.82,101.0
15.83,114.0
15.84,92.0
15.85,93.0
15.86,89.0
15.87,79.0
15.88,98.0
15.89,99.0
15.9,95.0
15.91,97.0
15.92,94.0
15.93,105.0
15.94,102.0
15.95,112.0
15.96,93.0
15.97,95.0
15.98,100.0
15.99,87.0
16.0,87.0
16.01,110.0
16.02,92.0
16.03,97.0
16.04,91.0
16.05,104.0
16.06,95.0
16.07,92.0
16.08,116.0
16.09,93.0
16.1,107.0
16.11,103.0
16.12,99.0
16.13,110.0
16.14,92.0
16.15,89.0
16.16,87.0
16.17,95.0
16.18,97.0
16.19,99.0
16.2,104.0
16.21,103.0
16.22,86.0
16.23,108.0
16.24,105.0
16.25,93.0
16.26,122.0
16.27,94.0
16.28,90.0
16.29,103.0
16.3,68.0
16.31,94.0
16.32,91.0
16.33,99.0
16.34,91.0
16.35,102.0
16.36,80.0
16.37,100.0
16.38,99.0
16.39,115.0
16.4,115.0
16.41,95.0
16.42,90.0
16.43,106.0
16.44,106.0
16.45,102.0
16.46,105.0
16.47,91.0
16.48,85.0
16.49,87.0
16.5,107.0
16.51,89.0
16.52,86.0
16.53,98.0
16.54,81.0
16.55,96.0
16.56,91.0
16.57,100.0
16.58,110.0
16.59,96.0
16.6,102.0
16.61,103.0
16.62,101.0
16.63,84.0
16.64,96.0
16.65,96.0
16.66,80.0
16.67,101.0
16.68,88.0
16.69,96.0
16.7,102.0
16.71,85.0
16.72,92.0
16.73,83.0
16.74,85.0
16.75,80.0
16.76,100.0
16.77,103.0
16.78,86.0
16.79,91.0
16.8,81.0
16.81,95.0
16.82,96.0
16.83,94.0
16.84,87.0
16.85,96.0
16.86,85.0
16.87,114.0
16.88,89.0
16.89,102.0
16.9,112.0
16.91,92.0
16.92,92.0
16.93,83.0
16.94,87.0
16.95,95.0
16.96,114.0
16.97,93.0
16.98,74.0
16.99,89.0
17.0,95.0
17.01,100.0
17.02,98.0
17.03,93.0
17.04,122.0
17.05,88.0
17.06,80.0
17.07,96.0
17.08,86.0
17.09,96.0
17.1,103.0
17.11,82.0
17.12,98.0
17.13,100.0
17.14,97.0
17.15,114.0
17.16,93.0
17.17,99.0
17.18,95.0
17.19,91.0
17.2,95.0
17.21,90.0
17.22,83.0
17.23,106.0
17.24,96.0
17.25,85.0
17.26,92.0
17.27,86.0
17.28,81.0
17.29,104.0
17.3,95.0
17.31,96.0
17.32,103.0
17.33,101.0
17.34,120.0
17.35,84.0
17.36,76.0
17.37,93.0
17.38,97.0
17.39,99.0
17.4,92.0
17.41,84.0
17.42,110.0
17.43,75.0
17.44,107.0
17.45,102.0
17.46,80.0
17.47,93.0
17.48,95.0
17.49,87.0
17.5,104.0
17.51,101.0
17.52,103.0
17.53,90.0
17.54,96.0
17.55,84.0
17.56,104.0
17.57,112.0
17.58,95.0
17.59,84.0
17.6,81.0
17.61,74.0
17.62,91.0
17.63,83.0
17.64,97.0
17.65,108.0
17.66,94.0
17.67,87.0
17.68,107.0
17.69,113.0
17.7,86.0
17.71,97.0
17.72,89.0
17.73,105.0
17.74,84.0
17.75,103.0
17.76,100.0
17.77,99.0
17.78,100.0
17.79,87.0
17.8,102.0
17.81,99.0
17.82,109.0
17.83,108.0
17.84,92.0
17.85,92.0
17.86,101.0
17.87,85.0
17.88,94.0
17.89,97.0
17.9,89.0
17.91,111.0
17.92,111.0
17.93,91.0
17.94,108.0
17.95,88.0
17.96,90.0
17.97,87.0
17.98,94.0
17.99,90.0
18.0,104.0
18.01,99.0
18.02,105.0
18.03,97.0
18.04,92.0
18.05,97.0
18.06,91.0
18.07,105.0
18.08,82.0
18.09,82.0
18.1,84.0
18.11,89.0
18.12,91.0
18.13,96.0
18.14,99.0
18.15,105.0
18.16,104.0
18.17,88.0
18.18,102.0
18.19,112.0
18.2,104.0
18.21,78.0
18.22,85.0
18.23,72.0
18.24,87.0
18.25,103.0
18.26,102.0
18.27,98.0
18.28,92.0
18.29,91.0
18.3,98.0
18.31,103.0
18.32,110.0
18.33,90.0
18.34,104.0
18.35,105.0
18.36,82.0
18.37,101.0
18.38,88.0
18.39,95.0
18.4,97.0
18.41,95.0
18.42,90.0
18.43,94.0
18.44,112.0
18.45,117.0
18.46,97.0
18.47,97.0
18.48,93.0
18.49,107.0
18.5,94.0
18.51,90.0
18.52,90.0
18.53,85.0
18.54,91.0
18.55,100.0
18.56,106.0
18.57,109.0
18.58,106.0
18.59,98.0
18.6,93.0
18.61,101.0
18.62,99.0
18.63,110.0
18.64,109.0
18.65,80.0
18.66,99.0
18.67,81.0
18.68,94.0
18.69,83.0
18.7,95.0
18.71,89.0
18.72,110.0
18.73,106.0
18.74,103.0
18.75,91.0
18.76,114.0
18.77,111.0
18.78,100.0
18.79,83.0
18.8,106.0
18.81,89.0
18.82,92.0
18.83,88.0
18.84,103.0
18.85,90.0
18.86,100.0
18.87,114.0
18.88,95.0
18.89,95.0
18.9,106.0
18.91,102.0
18.92,96.0
18.93,84.0
18.94,89.0
18.95,94.0
18.96,93.0
18.97,100.0
18.98,104.0
18.99,87.0
19.0,81.0
19.01,108.0
19.02,90.0
19.03,80.0
19.04,108.0
19.05,95.0
19.06,108.0
19.07,106.0
19.08,81.0
19.09,98.0
19.1,80.0
19.11,101.0
19.12,100.0
19.13,87.0
19.14,93.0
19.15,100.0
19.16,80.0
19.17,123.0
19.18,107.0
19.19,100.0
19.2,85.0
19.21,95.0
19.22,76.0
19.23,87.0
19.24,88.0
19.25,86.0
19.26,103.0
19.27,111.0
19.28,99.0
19.29,97.0
19.3,110.0
19.31,103.0
19.32,115.0
19.33,110.0
19.34,88.0
19.35,96.0
19.36,87.0
19.37,91.0
19.38,105.0
19.39,96.0
19.4,94.0
19.41,121.0
19.42,92.0
19.43,93.0
19.44,87.0
19.45,83.0
19.46,84.0
19.47,91.0
19.48,80.0
19.49,74.0
19.5,97.0
19.51,77.0
19.52,89.0
19.53,98.0
19.54,100.0
19.55,118.0
19.56,106.0
19.57,101.0
19.58,111.0
19.59,83.0
19.6,106.0
19.61,100.0
19.62,76.0
19.63,94.0
19.64,91.0
19.65,95.0
19.66,97.0
19.67,91.0
19.68,82.0
19.69,106.0
19.7,101.0
19.71,91.0
19.72,95.0
19.73,97.0
19.74,86.0
19.75,88.0
19.76,111.0
19.77,98.0
19.78,87.0
19.79,76.0
19.8,96.0
19.81,97.0
19.82,101.0
19.83,105.0
19.84,75.0
19.85,106.0
19.86,98.0
19.87,77.0
19.88,77.0
19.89,81.0
19.9,105.0
19.91,80.0
19.92,96.0
19.93,90.0
19.94,89.0
19.95,100.0
19.96,113.0
19.97,112.0
19.98,76.0
19.99,105.0
20.0,97.0
20.01,94.0
20.02,107.0
20.03,105.0
20.04,95.0
20.05,105.0
20.06,104.0
20.07,91.0
20.08,98.0
20.09,94.0
20.1,85.0
20.11,94.0
20.12,96.0
20.13,73.0
20.14,89.0
20.15,111.0
20.16,99.0
20.17,87.0
20.18,92.0
20.19,89.0
20.2,100.0
20.21,88.0
20.22,85.0
20.23,79.0
20.24,96.0
20.25,88.0
20.26,84.0
20.27,96.0
20.28,79.0
20.29,89.0
20.3,79.0
20.31,78.0
20.32,70.0
20.33,82.0
20.34,90.0
20.35,90.0
20.36,82.0
20.37,106.0
20.38,98.0
20.39,94.0
20.4,99.0
20.41,98.0
20.42,83.0
20.43,112.0
20.44,104.0
20.45,104.0
20.46,99.0
20.47,96.0
20.48,99.0
20.49,100.0
20.5,96.0
20.51,120.0
20.52,85.0
20.53,93.0
20.54,92.0
20.55,119.0
20.56,94.0
20.57,93.0
20.58,85.0
20.59,92.0
20.6,103.0
20.61,116.0
20.62,110.0
20.63,100.0
20.64,95.0
20.65,89.0
20.66,108.0
20.67,86.0
20.68,91.0
20.69,92.0
20.7,89.0
20.71,91.0
20.72,97.0
20.73,87.0
20.74,90.0
20.75,81.0
20.76,99.0
20.77,93.0
20.78,82.0
20.79,99.0
20.8,96.0
20.81,90.0
20.82,87.0
20.83,116.0
20.84,110.0
20.85,94.0
20.86,92.0
20.87,99.0
20.88,112.0
20.89,88.0
20.9,96.0
20.91,94.0
20.92,96.0
20.93,92.0
20.94,89.0
20.95,87.0
20.96,99.0
20.97,93.0
20.98,87.0
20.99,71.0
21.0,102.0
21.01,94.0
21.02,81.0
21.03,84.0
21.04,75.0
21.05,85.0
21.06,101.0
21.07,86.0
21.08,101.0
21.09,83.0
21.1,98.0
21.11,92.0
21.12,94.0
21.13,119.0
21.14,111.0
21.15,84.0
21.16,113.0
21.17,87.0
21.18,84.0
21.19,92.0
21.2,86.0
21.21,102.0
21.22,99.0
21.23,113.0
21.24,95.0
21.25,89.0
21.26,86.0
21.27,105.0
21.28,95.0
21.29,97.0
21.3,89.0
21.31,110.0
21.32,83.0
21.33,103.0
21.34,79.0
21.35,95.0
21.36,115.0
21.37,87.0
21.38,95.0
21.39,92.0
21.4,109.0
21.41,87.0
21.42,97.0
21.43,92.0
21.44,83.0
21.45,100.0
21.46,107.0
21.47,99.0
21.48,104.0
21.49,110.0
21.5,87.0
21.51,82.0
21.52,104.0
21.53,105.0
21.54,100.0
21.55,117.0
21.56,88.0
21.57,88.0
21.58,83.0
21.59,88.0
21.6,91.0
21.61,95.0
21.62,97.0
21.63,91.0
21.64,98.0
21.65,101.0
21.66,97.0
21.67,110.0
21.68,98.0
21.69,98.0
21.7,96.0
21.71,85.0
21.72,105.0
21.73,101.0
21.74,94.0
21.75,76.0
21.76,124.0
21.77,92.0
21.78,116.0
21.79,119.0
21.8,94.0
21.81,102.0
21.82,96.0
21.83,106.0
21.84,95.0
21.85,91.0
21.86,107.0
21.87,92.0
21.88,88.0
21.89,91.0
21.9,101.0
21.91,86.0
21.92,107.0
21.93,88.0
21.94,87.0
21.95,93.0
21.96,90.0
21.97,90.0
21.98,100.0
21.99,101.0
22.0,98.0
22.01,94.0
22.02,96.0
22.03,93.0
22.04,78.0
22.05,106.0
22.06,93.0
22.07,92.0
22.08,103.0
22.09,84.0
22.1,102.0
22.11,112.0
22.12,103.0
22.13,91.0
22.14,105.0
22.15,92.0
22.16,99.0
22.17,95.0
22.18,110.0
22.19,98.0
22.2,85.0
22.21,100.0
22.22,107.0
22.23,74.0
22.24,86.0
22.25,76.0
22.26,82.0
22.27,93.0
22.28,90.0
22.29,79.0
22.3,91.0
22.31,109.0
22.32,91.0
22.33,85.0
22.34,95.0
22.35,87.0
22.36,100.0
22.37,96.0
22.38,82.0
22.39,81.0
22.4,77.0
22.41,96.0
22.42,89.0
22.43,79.0
22.44,98.0
22.45,102.0
22.46,103.0
22.47,100.0
22.48,98.0
22.49,90.0
22.5,85.0
22.51,101.0
22.52,88.0
22.53,86.0
22.54,101.0
22.55,106.0
22.56,103.0
22.57,101.0
22.58,83.0
22.59,89.0
22.6,84.0
22.61,71.0
22.62,88.0
22.63,94.0
22.64,100.0
22.65,82.0
22.66,85.0
22.67,108.0
22.68,85.0
22.69,91.0
22.7,89.0
22.71,93.0
22.72,91.0
22.73,104.0
22.74,84.0
22.75,97.0
22.76,95.0
22.77,98.0
22.78,98.0
22.79,99.0
22.8,96.0
22.81,114.0
22.82,77.0
22.83,91.0
22.84,82.0
22.85,79.0
22.86,91.0
22.87,102.0
22.88,101.0
22.89,95.0
22.9,99.0
22.91,87.0
22.92,105.0
22.93,77.0
22.94,117.0
22.95,98.0
22.96,98.0
22.97,92.0
22.98,101.0
22.99,96.0
23.0,104.0
23.01,93.0
23.02,104.0
23.03,98.0
23.04,109.0
23.05,97.0
23.06,101.0
23.07,89.0
23.08,96.0
23.09,97.0
23.1,99.0
23.11,101.0
23.12,88.0
23.13,104.0
23.14,98.0
23.15,95.0
23.16,89.0
23.17,108.0
23.18,92.0
23.19,109.0
23.2,90.0
23.21,95.0
23.22,105.0
23.23,85.0
23.24,104.0
23.25,104.0
23.26,86.0
23.27,81.0
23.28,96.0
23.29,75.0
23.3,94.0
23.31,81.0
23.32,79.0
23.33,101.0
23.34,89.0
23.35,82.0
23.36,93.0
23.37,103.0
23.38,88.0
23.39,95.0
23.4,84.0
23.41,94.0
23.42,86.0
23.43,89.0
23.44,96.0
23.45,99.0
23.46,105.0
23.47,99.0
23.48,90.0
23.49,95.0
23.5,106.0
23.51,83.0
23.52,94.0
23.53,86.0
23.54,120.0
23.55,87.0
23.56,106.0
23.57,109.0
23.58,75.0
23.59,97.0
23.6,104.0
23.61,110.0
23.62,86.0
23.63,101.0
23.64,98.0
23.65,91.0
23.66,99.0
23.67,108.0
23.68,105.0
23.69,90.0
23.7,102.0
23.71,105.0
23.72,101.0
23.73,108.0
23.74,74.0
23.75,98.0
23.76,109.0
23.77,90.0
23.78,99.0
23.79,90.0
23.8,76.0
23.81,103.0
23.82,86.0
23.83,117.0
23.84,91.0
23.85,85.0
23.86,78.0
23.87,97.0
23.88,107.0
23.89,81.0
23.9,97.0
23.91,103.0
23.92,92.0
23.93,98.0
23.94,85.0
23.95,113.0
23.96,70.0
23.97,92.0
23.98,102.0
23.99,96.0
24.0,113.0
24.01,87.0
24.02,97.0
24.03,87.0
24.04,94.0
24.05,98.0
24.06,91.0
24.07,80.0
24.08,91.0
24.09,91.0
24.1,90.0
24.11,81.0
24.12,107.0
24.13,88.0
24.14,100.0
24.15,99.0
24.16,94.0
24.17,79.0
24.18,100.0
24.19,90.0
24.2,99.0
24.21,97.0
24.22,88.0
24.23,116.0
24.24,94.0
24.25,91.0
24.26,86.0
24.27,94.0
24.28,94.0
24.29,85.0
24.3,78.0
24.31,85.0
24.32,86.0
24.33,93.0
24.34,74.0
24.35,93.0
24.36,87.0
24.37,100.0
24.38,94.0
24.39,91.0
24.4,84.0
24.41,96.0
24.42,98.0
24.43,99.0
24.44,107.0
24.45,102.0
24.46,97.0
24.47,99.0
24.48,100.0
24.49,99.0
24.5,89.0
24.51,108.0
24.52,83.0
24.53,98.0
24.54,82.0
24.55,111.0
24.56,92.0
24.57,88.0
24.58,93.0
24.59,105.0
24.6,95.0
24.61,95.0
24.62,81.0
24.63,96.0
24.64,89.0
24.65,98.0
24.66,93.0
24.67,106.0
24.68,88.0
24.69,102.0
24.7,77.0
24.71,102.0
24.72,109.0
24.73,101.0
24.74,99.0
24.75,91.0
24.76,96.0
24.77,92.0
24.78,99.0
24.79,109.0
24.8,83.0
24.81,90.0
24.82,98.0
24.83,81.0
24.84,102.0
24.85,76.0
24.86,97.0
24.87,92.0
24.88,91.0
24.89,87.0
24.9,105.0
24.91,108.0
24.92,98.0
24.93,107.0
24.94,108.0
24.95,89.0
24.96,101.0
24.97,98.0
24.98,94.0
24.99,109.0
25.0,96.0
25.01,106.0
25.02,115.0
25.03,100.0
25.04,96.0
25.05,103.0
25.06,100.0
25.07,81.0
25.08,86.0
25.09,81.0
25.1,89.0
25.11,93.0
25.12,88.0
25.13,88.0
25.14,95.0
25.15,115.0
25.16,109.0
25.17,91.0
25.18,89.0
25.19,89.0
25.2,105.0
25.21,86.0
25.22,122.0
25.23,114.0
25.24,104.0
25.25,98.0
25.26,98.0
25.27,84.0
25.28,97.0
25.29,101.0
25.3,99.0
25.31,105.0
25.32,106.0
25.33,98.0
25.34,117.0
25.35,100.0
25.36,94.0
25.37,85.0
25.38,87.0
25.39,96.0
25.4,85.0
25.41,113.0
25.42,99.0
25.43,97.0
25.44,90.0
25.45,90.0
25.46,99.0
25.47,107.0
25.48,83.0
25.49,83.0
25.5,109.0
25.51,80.0
25.52,95.0
25.53,87.0
25.54,100.0
25.55,79.0
25.56,84.0
25.57,77.0
25.58,112.0
25.59,106.0
25.6,87.0
25.61,105.0
25.62,99.0
25.63,110.0
25.64,89.0
25.65,93.0
25.66,100.0
25.67,90.0
25.68,101.0
25.69,105.0
25.7,78.0
25.71,104.0
25.72,101.0
25.73,92.0
25.74,98.0
25.75,94.0
25.76,98.0
25.77,97.0
25.78,98.0
25.79,92.0
25.8,94.0
25.81,88.0
25.82,91.0
25.83,108.0
25.84,109.0
25.85,95.0
25.86,102.0
25.87,86.0
25.88,109.0
25.89,92.0
25.9,105.0
25.91,80.0
25.92,98.0
25.93,94.0
25.94,77.0
25.95,101.0
25.96,90.0
25.97,83.0
25.98,93.0
25.99,102.0
26.0,78.0
26.01,78.0
26.02,92.0
26.03,89.0
26.04,94.0
26.05,105.0
26.06,84.0
26.07,105.0
26.08,88.0
26.09,103.0
26.1,100.0
26.11,99.0
26.12,99.0
26.13,92.0
26.14,85.0
26.15,94.0
26.16,92.0
26.17,95.0
26.18,123.0
26.19,100.0
26.2,87.0
26.21,104.0
26.22,98.0
26.23,82.0
26.24,122.0
26.25,106.0
26.26,101.0
26.27,85.0
26.28,100.0
26.29,84.0
26.3,98.0
26.31,108.0
26.32,102.0
26.33,80.0
26.34,96.0
26.35,101.0
26.36,81.0
26.37,82.0
26.38,92.0
26.39,116.0
26.4,84.0
26.41,102.0
26.42,101.0
26.43,97.0
26.44,88.0
26.45,87.0
26.46,107.0
26.47,90.0
26.48,97.0
26.49,112.0
26.5,97.0
26.51,79.0
26.52,93.0
26.53,81.0
26.54,98.0
26.55,100.0
26.56,105.0
26.57,103.0
26.58,89.0
26.59,91.0
26.6,101.0
26.61,80.0
26.62,117.0
26.63,91.0
26.64,82.0
26.65,75.0
26.66,111.0
26.67,91.0
26.68,95.0
26.69,85.0
26.7,84.0
26.71,91.0
26.72,86.0
26.73,97.0
26.74,94.0
26.75,91.0
26.76,94.0
26.77,82.0
26.78,105.0
26.79,101.0
26.8,97.0
26.81,119.0
26.82,107.0
26.83,98.0
26.84,82.0
26.85,83.0
26.86,98.0
26.87,90.0
26.88,108.0
26.89,99.0
26.9,82.0
26.91,131.0
26.92,107.0
26.93,100.0
26.94,86.0
26.95,84.0
26.96,88.0
26.97,90.0
26.98,98.0
26.99,104.0
27.0,86.0
27.01,98.0
27.02,91.0
27.03,86.0
27.04,100.0
27.05,105.0
27.06,95.0
27.07,97.0
27.08,102.0
27.09,99.0
27.1,83.0
27.11,84.0
27.12,85.0
27.13,87.0
27.14,102.0
27.15,84.0
27.16,102.0
27.17,111.0
27.18,76.0
27.19,91.0
27.2,106.0
27.21,95.0
27.22,92.0
27.23,97.0
27.24,86.0
27.25,94.0
27.26,102.0
27.27,85.0
27.28,91.0
27.29,100.0
27.3,92.0
27.31,109.0
27.32,86.0
27.33,109.0
27.34,97.0
27.35,106.0
27.36,87.0
27.37,91.0
27.38,88.0
27.39,98.0
27.4,85.0
27.41,109.0
27.42,99.0
27.43,94.0
27.44,117.0
27.45,93.0
27.46,88.0
27.47,96.0
27.48,95.0
27.49,95.0
27.5,94.0
27.51,92.0
27.52,99.0
27.53,85.0
27.54,114.0
27.55,103.0
27.56,92.0
27.57,92.0
27.58,105.0
27.59,102.0
27.6,96.0
27.61,94.0
27.62,92.0
27.63,97.0
27.64,87.0
27.65,98.0
27.66,106.0
27.67,108.0
27.68,98.0
27.69,87.0
27.7,104.0
27.71,82.0
27.72,82.0
27.73,113.0
27.74,112.0
27.75,94.0
27.76,90.0
27.77,76.0
27.78,85.0
27.79,93.0
27.8,80.0
27.81,97.0
27.82,73.0
27.83,109.0
27.84,107.0
27.85,80.0
27.86,89.0
27.87,75.0
27.88,90.0
27.89,106.0
27.9,94.0
27.91,98.0
27.92,73.0
27.93,95.0
27.94,100.0
27.95,104.0
27.96,109.0
27.97,93.0
27.98,102.0
27.99,121.0
28.0,122.0
28.01,90.0
28.02,113.0
28.03,111.0
28.04,97.0
28.05,94.0
28.06,102.0
28.07,86.0
28.08,109.0
28.09,93.0
28.1,100.0
28.11,85.0
28.12,106.0
28.13,86.0
28.14,120.0
28.15,91.0
28.16,96.0
28.17,108.0
28.18,99.0
28.19,83.0
28.2,89.0
28.21,104.0
28.22,84.0
28.23,89.0
28.24,112.0
28.25,104.0
28.26,99.0
28.27,90.0
28.28,73.0
28.29,103.0
28.3,90.0
28.31,78.0
28.32,79.0
28.33,83.0
28.34,93.0
28.35,118.0
28.36,100.0
28.37,89.0
28.38,101.0
28.39,97.0
28.4,90.0
28.41,105.0
28.42,104.0
28.43,82.0
28.44,103.0
28.45,103.0
28.46,83.0
28.47,102.0
28.48,85.0
28.49,95.0
28.5,89.0
28.51,92.0
28.52,99.0
28.53,84.0
28.54,94.0
28.55,88.0
28.56,83.0
28.57,77.0
28.58,89.0
28.59,106.0
28.6,92.0
28.61,94.0
28.62,104.0
28.63,91.0
28.64,92.0
28.65,70.0
28.66,88.0
28.67,109.0
28.68,95.0
28.69,110.0
28.7,95.0
28.71,104.0
28.72,97.0
28.73,83.0
28.74,77.0
28.75,97.0
28.76,113.0
28.77,102.0
28.78,107.0
28.79,101.0
28.8,87.0
28.81,93.0
28.82,72.0
28.83,86.0
28.84,95.0
28.85,96.0
28.86,82.0
28.87,86.0
28.88,87.0
28.89,86.0
28.9,87.0
28.91,108.0
28.92,88.0
28.93,88.0
28.94,113.0
28.95,108.0
28.96,85.0
28.97,111.0
28.98,93.0
28.99,83.0
29.0,89.0
29.01,88.0
29.02,106.0
29.03,95.0
29.04,101.0
29.05,95.0
29.06,99.0
29.07,101.0
29.08,95.0
29.09,100.0
29.1,90.0
29.11,88.0
29.12,94.0
29.13,100.0
29.14,89.0
29.15,94.0
29.16,84.0
29.17,81.0
29.18,90.0
29.19,88.0
29.2,76.0
29.21,100.0
29.22,94.0
29.23,90.0
29.24,78.0
29.25,83.0
29.26,89.0
29.27,113.0
29.28,105.0
29.29,89.0
29.3,97.0
29.31,92.0
29.32,100.0
29.33,102.0
29.34,91.0
29.35,102.0
29.36,89.0
29.37,78.0
29.38,107.0
29.39,81.0
29.4,96.0
29.41,90.0
29.42,101.0
29.43,100.0
29.44,103.0
29.45,99.0
29.46,94.0
29.47,88.0
29.48,97.0
29.49,82.0
29.5,90.0
29.51,92.0
29.52,96.0
29.53,103.0
29.54,94.0
29.55,105.0
29.56,81.0
29.57,107.0
29.58,86.0
29.59,95.0
29.6,84.0
29.61,98.0
29.62,105.0
29.63,84.0
29.64,100.0
29.65,97.0
29.66,100.0
29.67,101.0
29.68,106.0
29.69,96.0
29.7,109.0
29.71,94.0
29.72,108.0
29.73,100.0
29.74,104.0
29.75,102.0
29.76,92.0
29.77,83.0
29.78,90.0
29.79,106.0
29.8,89.0
29.81,91.0
29.82,104.0
29.83,90.0
29.84,93.0
29.85,111.0
29.86,95.0
29.87,91.0
29.88,93.0
29.89,86.0
29.9,79.0
29.91,108.0
29.92,107.0
29.93,101.0
29.94,98.0
29.95,101.0
29.96,76.0
29.97,102.0
29.98,93.0
29.99,85.0
30.0,104.0
30.01,105.0
30.02,91.0
30.03,106.0
30.04,90.0
30.05,108.0
30.06,101.0
30.07,94.0
30.08,94.0
30.09,85.0
30.1,85.0
30.11,78.0
30.12,93.0
30.13,104.0
30.14,98.0
30.15,103.0
30.16,99.0
30.17,87.0
30.18,92.0
30.19,90.0
30.2,99.0
30.21,95.0
30.22,83.0
30.23,88.0
30.24,93.0
30.25,98.0
30.26,74.0
30.27,122.0
30.28,106.0
30.29,101.0
30.3,101.0
30.31,96.0
30.32,94.0
30.33,109.0
30.34,105.0
30.35,91.0
30.36,83.0
30.37,101.0
30.38,101.0
30.39,100.0
30.4,71.0
30.41,96.0
30.42,87.0
30.43,92.0
30.44,89.0
30.45,77.0
30.46,82.0
30.47,98.0
30.48,92.0
30.49,103.0
30.5,91.0
30.51,100.0
30.52,105.0
30.53,107.0
30.54,101.0
30.55,101.0
30.56,96.0
30.57,95.0
30.58,86.0
30.59,86.0
30.6,95.0
30.61,122.0
30.62,97.0
30.63,116.0
30.64,80.0
30.65,102.0
30.66,78.0
30.67,96.0
30.68,85.0
30.69,89.0
30.7,83.0
30.71,93.0
30.72,87.0
30.73,77.0
30.74,111.0
30.75,72.0
30.76,129.0
30.77,104.0
30.78,107.0
30.79,93.0
30.8,104.0
30.81,91.0
30.82,99.0
30.83,120.0
30.84,90.0
30.85,114.0
30.86,89.0
30.87,120.0
30.88,120.0
30.89,116.0
30.9,103.0
30.91,121.0
30.92,115.0
30.93,103.0
30.94,124.0
30.95,130.0
30.96,121.0
30.97,143.0
30.98,157.0
30.99,247.0
31.0,353.0
31.01,480.0
31.02,712.0
31.03,805.0
31.04,715.0
31.05,461.0
31.06,273.0
31.07,266.0
31.08,272.0
31.09,335.0
31.1,436.0
31.11,491.0
31.12,363.0
31.13,238.0
31.14,181.0
31.15,134.0
31.16,131.0
31.17,123.0
31.18,117.0
31.19,111.0
31.2,98.0
31.21,89.0
31.22,102.0
31.23,98.0
31.24,118.0
31.25,122.0
31.26,101.0
31.27,123.0
31.28,111.0
31.29,103.0
31.3,108.0
31.31,91.0
31.32,113.0
31.33,107.0
31.34,103.0
31.35,125.0
31.36,98.0
31.37,101.0
31.38,117.0
31.39,102.0
31.4,96.0
31.41,82.0
31.42,90.0
31.43,99.0
31.44,100.0
31.45,87.0
31.46,90.0
31.47,97.0
31.48,91.0
31.49,98.0
31.5,100.0
31.51,94.0
31.52,115.0
31.53,91.0
31.54,81.0
31.55,84.0
31.56,108.0
31.57,98.0
31.58,79.0
31.59,74.0
31.6,101.0
31.61,100.0
31.62,90.0
31.63,89.0
31.64,94.0
31.65,88.0
31.66,85.0
31.67,94.0
31.68,103.0
31.69,110.0
31.7,105.0
31.71,89.0
31.72,99.0
31.73,87.0
31.74,97.0
31.75,91.0
31.76,96.0
31.77,88.0
31.78,94.0
31.79,98.0
31.8,93.0
31.81,99.0
31.82,89.0
31.83,86.0
31.84,80.0
31.85,93.0
31.86,95.0
31.87,106.0
31.88,92.0
31.89,87.0
31.9,101.0
31.91,117.0
31.92,90.0
31.93,110.0
31.94,95.0
31.95,72.0
31.96,109.0
31.97,100.0
31.98,97.0
31.99,82.0
32.0,97.0
32.01,105.0
32.02,93.0
32.03,95.0
32.04,100.0
32.05,101.0
32.06,75.0
32.07,90.0
32.08,106.0
32.09,92.0
32.1,90.0
32.11,98.0
32.12,87.0
32.13,84.0
32.14,86.0
32.15,99.0
32.16,103.0
32.17,103.0
32.18,91.0
32.19,100.0
32.2,106.0
32.21,101.0
32.22,82.0
32.23,85.0
32.24,105.0
32.25,89.0
32.26,96.0
32.27,104.0
32.28,88.0
32.29,99.0
32.3,78.0
32.31,100.0
32.32,88.0
32.33,97.0
32.34,102.0
32.35,80.0
32.36,110.0
32.37,98.0
32.38,79.0
32.39,96.0
32.4,102.0
32.41,102.0
32.42,89.0
32.43,117.0
32.44,95.0
32.45,91.0
32.46,88.0
32.47,123.0
32.48,96.0
32.49,112.0
32.5,96.0
32.51,99.0
32.52,98.0
32.53,114.0
32.54,94.0
32.55,95.0
32.56,109.0
32.57,97.0
32.58,86.0
32.59,81.0
32.6,111.0
32.61,110.0
32.62,107.0
32.63,98.0
32.64,97.0
32.65,98.0
32.66,76.0
32.67,96.0
32.68,101.0
32.69,94.0
32.7,88.0
32.71,89.0
32.72,97.0
32.73,97.0
32.74,77.0
32.75,93.0
32.76,103.0
32.77,110.0
32.78,118.0
32.79,95.0
32.8,90.0
32.81,95.0
32.82,85.0
32.83,106.0
32.84,89.0
32.85,86.0
32.86,98.0
32.87,93.0
32.88,101.0
32.89,95.0
32.9,108.0
32.91,120.0
32.92,109.0
32.93,92.0
32.94,101.0
32.95,108.0
32.96,105.0
32.97,85.0
32.98,85.0
32.99,79.0
33.0,105.0
33.01,94.0
33.02,102.0
33.03,97.0
33.04,112.0
33.05,105.0
33.06,91.0
33.07,92.0
33.08,97.0
33.09,113.0
33.1,88.0
33.11,113.0
33.12,92.0
33.13,96.0
33.14,93.0
33.15,82.0
33.16,89.0
33.17,88.0
33.18,82.0
33.19,95.0
33.2,82.0
33.21,100.0
33.22,92.0
33.23,119.0
33.24,98.0
33.25,98.0
33.26,95.0
33.27,82.0
33.28,87.0
33.29,95.0
33.3,90.0
33.31,94.0
33.32,95.0
33.33,96.0
33.34,111.0
33.35,100.0
33.36,107.0
33.37,90.0
33.38,87.0
33.39,99.0
33.4,106.0
33.41,107.0
33.42,84.0
33.43,94.0
33.44,102.0
33.45,85.0
33.46,97.0
33.47,98.0
33.48,90.0
33.49,100.0
33.5,109.0
33.51,100.0
33.52,83.0
33.53,108.0
33.54,94.0
33.55,102.0
33.56,98.0
33.57,88.0
33.58,89.0
33.59,114.0
33.6,97.0
33.61,82.0
33.62,112.0
33.63,97.0
33.64,109.0
33.65,112.0
33.66,110.0
33.67,93.0
33.68,112.0
33.69,85.0
33.7,85.0
33.71,99.0
33.72,100.0
33.73,89.0
33.74,94.0
33.75,93.0
33.76,89.0
33.77,92.0
33.78,73.0
33.79,114.0
33.8,95.0
33.81,88.0
33.82,120.0
33.83,105.0
33.84,99.0
33.85,89.0
33.86,85.0
33.87,99.0
33.88,100.0
33.89,90.0
33.9,100.0
33.91,86.0
33.92,94.0
33.93,93.0
33.94,109.0
33.95,80.0
33.96,81.0
33.97,99.0
33.98,107.0
33.99,113.0
34.0,101.0
34.01,101.0
34.02,111.0
34.03,88.0
34.04,101.0
34.05,97.0
34.06,102.0
34.07,96.0
34.08,112.0
34.09,105.0
34.1,99.0
34.11,97.0
34.12,104.0
34.13,105.0
34.14,119.0
34.15,95.0
34.16,93.0
34.17,113.0
34.18,102.0
34.19,115.0
34.2,111.0
34.21,86.0
34.22,97.0
34.23,113.0
34.24,94.0
34.25,81.0
34.26,91.0
34.27,97.0
34.28,117.0
34.29,97.0
34.3,107.0
34.31,88.0
34.32,91.0
34.33,79.0
34.34,97.0
34.35,120.0
34.36,105.0
34.37,89.0
34.38,114.0
34.39,104.0
34.4,88.0
34.41,96.0
34.42,99.0
34.43,95.0
34.44,92.0
34.45,116.0
34.46,110.0
34.47,105.0
34.48,97.0
34.49,114.0
34.5,109.0
34.51,106.0
34.52,93.0
34.53,122.0
34.54,108.0
34.55,100.0
34.56,107.0
34.57,104.0
34.58,108.0
34.59,104.0
34.6,108.0
34.61,125.0
34.62,125.0
34.63,113.0
34.64,105.0
34.65,115.0
34.66,128.0
34.67,129.0
34.68,116.0
34.69,140.0
34.7,133.0
34.71,145.0
34.72,143.0
34.73,180.0
34.74,237.0
34.75,252.0
34.76,428.0
34.77,560.0
34.78,738.0
34.79,895.0
34.8,987.0
34.81,820.0
34.82,573.0
34.83,442.0
34.84,323.0
34.85,311.0
34.86,386.0
34.87,494.0
34.88,545.0
34.89,520.0
34.9,436.0
34.91,326.0
34.92,227.0
34.93,204.0
34.94,152.0
34.95,140.0
34.96,149.0
34.97,141.0
34.98,125.0
34.99,95.0
35.0,123.0
35.01,106.0
35.02,116.0
35.03,99.0
35.04,110.0
35.05,112.0
35.06,124.0
35.07,85.0
35.08,114.0
35.09,117.0
35.1,115.0
35.11,100.0
35.12,103.0
35.13,97.0
35.14,99.0
35.15,97.0
35.16,97.0
35.17,121.0
35.18,111.0
35.19,113.0
35.2,111.0
35.21,101.0
35.22,102.0
35.23,92.0
35.24,110.0
35.25,105.0
35.26,110.0
35.27,95.0
35.28,89.0
35.29,120.0
35.3,110.0
35.31,97.0
35.32,104.0
35.33,116.0
35.34,96.0
35.35,95.0
35.36,112.0
35.37,87.0
35.38,84.0
35.39,102.0
35.4,86.0
35.41,109.0
35.42,94.0
35.43,92.0
35.44,86.0
35.45,96.0
35.46,91.0
35.47,96.0
35.48,98.0
35.49,88.0
35.5,100.0
35.51,112.0
35.52,91.0
35.53,90.0
35.54,110.0
35.55,101.0
35.56,93.0
35.57,105.0
35.58,106.0
35.59,83.0
35.6,106.0
35.61,101.0
35.62,104.0
35.63,127.0
35.64,82.0
35.65,106.0
35.66,88.0
35.67,86.0
35.68,96.0
35.69,93.0
35.7,102.0
35.71,81.0
35.72,101.0
35.73,102.0
35.74,110.0
35.75,102.0
35.76,88.0
35.77,87.0
35.78,98.0
35.79,94.0
35.8,101.0
35.81,99.0
35.82,98.0
35.83,103.0
35.84,100.0
35.85,105.0
35.86,81.0
35.87,112.0
35.88,107.0
35.89,111.0
35.9,109.0
35.91,108.0
35.92,104.0
35.93,94.0
35.94,97.0
35.95,105.0
35.96,102.0
35.97,102.0
35.98,90.0
35.99,84.0
36.0,97.0
36.01,85.0
36.02,82.0
36.03,99.0
36.04,105.0
36.05,115.0
36.06,102.0
36.07,89.0
36.08,83.0
36.09,94.0
36.1,97.0
36.11,84.0
36.12,64.0
36.13,94.0
36.14,99.0
36.15,90.0
36.16,84.0
36.17,83.0
36.18,104.0
36.19,90.0
36.2,100.0
36.21,102.0
36.22,84.0
36.23,94.0
36.24,93.0
36.25,85.0
36.26,94.0
36.27,107.0
36.28,84.0
36.29,91.0
36.3,88.0
36.31,100.0
36.32,89.0
36.33,106.0
36.34,86.0
36.35,105.0
36.36,96.0
36.37,97.0
36.38,99.0
36.39,95.0
36.4,110.0
36.41,93.0
36.42,104.0
36.43,100.0
36.44,106.0
36.45,108.0
36.46,116.0
36.47,98.0
36.48,115.0
36.49,113.0
36.5,96.0
36.51,140.0
36.52,167.0
36.53,268.0
36.54,374.0
36.55,411.0
36.56,348.0
36.57,230.0
36.58,172.0
36.59,156.0
36.6,125.0
36.61,151.0
36.62,178.0
36.63,212.0
36.64,223.0
36.65,239.0
36.66,206.0
36.67,158.0
36.68,131.0
36.69,118.0
36.7,113.0
36.71,101.0
36.72,93.0
36.73,119.0
36.74,104.0
36.75,96.0
36.76,96.0
36.77,87.0
36.78,101.0
36.79,96.0
36.8,87.0
36.81,92.0
36.82,90.0
36.83,76.0
36.84,102.0
36.85,105.0
36.86,101.0
36.87,119.0
36.88,104.0
36.89,93.0
36.9,93.0
36.91,116.0
36.92,83.0
36.93,87.0
36.94,106.0
36.95,92.0
36.96,94.0
36.97,109.0
36.98,103.0
36.99,97.0
37.0,94.0
37.01,89.0
37.02,93.0
37.03,91.0
37.04,101.0
37.05,121.0
37.06,92.0
37.07,93.0
37.08,82.0
37.09,83.0
37.1,86.0
37.11,97.0
37.12,90.0
37.13,121.0
37.14,111.0
37.15,89.0
37.16,114.0
37.17,111.0
37.18,82.0
37.19,105.0
37.2,101.0
37.21,115.0
37.22,108.0
37.23,93.0
37.24,99.0
37.25,87.0
37.26,89.0
37.27,82.0
37.28,86.0
37.29,89.0
37.3,92.0
37.31,102.0
37.32,90.0
37.33,99.0
37.34,103.0
37.35,90.0
37.36,115.0
37.37,92.0
37.38,90.0
37.39,100.0
37.4,89.0
37.41,86.0
37.42,96.0
37.43,102.0
37.44,81.0
37.45,105.0
37.46,96.0
37.47,95.0
37.48,121.0
37.49,90.0
37.5,91.0
37.51,97.0
37.52,94.0
37.53,117.0
37.54,91.0
37.55,89.0
37.56,95.0
37.57,93.0
37.58,90.0
37.59,103.0
37.6,90.0
37.61,90.0
37.62,107.0
37.63,98.0
37.64,99.0
37.65,96.0
37.66,94.0
37.67,91.0
37.68,97.0
37.69,83.0
37.7,91.0
37.71,95.0
37.72,98.0
37.73,99.0
37.74,85.0
37.75,107.0
37.76,97.0
37.77,102.0
37.78,102.0
37.79,99.0
37.8,94.0
37.81,108.0
37.82,114.0
37.83,90.0
37.84,104.0
37.85,112.0
37.86,82.0
37.87,108.0
37.88,106.0
37.89,91.0
37.9,90.0
37.91,101.0
37.92,89.0
37.93,89.0
37.94,98.0
37.95,88.0
37.96,98.0
37.97,101.0
37.98,88.0
37.99,104.0
38.0,107.0
38.01,114.0
38.02,94.0
38.03,106.0
38.04,110.0
38.05,102.0
38.06,90.0
38.07,84.0
38.08,110.0
38.09,104.0
38.1,93.0
38.11,89.0
38.12,99.0
38.13,102.0
38.14,105.0
38.15,98.0
38.16,124.0
38.17,92.0
38.18,132.0
38.19,136.0
38.2,157.0
38.21,183.0
38.22,294.0
38.23,433.0
38.24,605.0
38.25,511.0
38.26,342.0
38.27,229.0
38.28,164.0
38.29,153.0
38.3,166.0
38.31,186.0
38.32,202.0
38.33,296.0
38.34,323.0
38.35,316.0
38.36,206.0
38.37,151.0
38.38,124.0
38.39,111.0
38.4,119.0
38.41,100.0
38.42,115.0
38.43,101.0
38.44,107.0
38.45,113.0
38.46,80.0
38.47,89.0
38.48,101.0
38.49,72.0
38.5,102.0
38.51,86.0
38.52,84.0
38.53,98.0
38.54,98.0
38.55,95.0
38.56,104.0
38.57,109.0
38.58,106.0
38.59,120.0
38.6,88.0
38.61,93.0
38.62,103.0
38.63,91.0
38.64,101.0
38.65,106.0
38.66,99.0
38.67,99.0
38.68,77.0
38.69,95.0
38.7,104.0
38.71,99.0
38.72,104.0
38.73,93.0
38.74,98.0
38.75,99.0
38.76,100.0
38.77,103.0
38.78,99.0
38.79,95.0
38.8,87.0
38.81,103.0
38.82,107.0
38.83,91.0
38.84,86.0
38.85,101.0
38.86,103.0
38.87,97.0
38.88,84.0
38.89,98.0
38.9,100.0
38.91,68.0
38.92,93.0
38.93,103.0
38.94,83.0
38.95,91.0
38.96,97.0
38.97,91.0
38.98,99.0
38.99,91.0
39.0,97.0
39.01,98.0
39.02,92.0
39.03,84.0
39.04,109.0
39.05,102.0
39.06,94.0
39.07,103.0
39.08,108.0
39.09,107.0
39.1,107.0
39.11,95.0
39.12,83.0
39.13,82.0
39.14,95.0
39.15,92.0
39.16,104.0
39.17,106.0
39.18,82.0
39.19,85.0
39.2,92.0
39.21,96.0
39.22,100.0
39.23,81.0
39.24,94.0
39.25,92.0
39.26,86.0
39.27,103.0
39.28,75.0
39.29,92.0
39.3,105.0
39.31,90.0
39.32,91.0
39.33,104.0
39.34,101.0
39.35,104.0
39.36,99.0
39.37,87.0
39.38,84.0
39.39,83.0
39.4,113.0
39.41,81.0
39.42,76.0
39.43,88.0
39.44,99.0
39.45,107.0
39.46,82.0
39.47,102.0
39.48,84.0
39.49,90.0
39.5,76.0
39.51,92.0
39.52,86.0
39.53,105.0
39.54,108.0
39.55,102.0
39.56,113.0
39.57,96.0
39.58,103.0
39.59,94.0
39.6,92.0
39.61,80.0
39.62,109.0
39.63,101.0
39.64,88.0
39.65,96.0
39.66,104.0
39.67,100.0
39.68,99.0
39.69,104.0
39.7,108.0
39.71,105.0
39.72,98.0
39.73,95.0
39.74,66.0
39.75,117.0
39.76,103.0
39.77,96.0
39.78,100.0
39.79,123.0
39.8,112.0
39.81,131.0
39.82,127.0
39.83,170.0
39.84,176.0
39.85,286.0
39.86,358.0
39.87,416.0
39.88,333.0
39.89,239.0
39.9,180.0
39.91,133.0
39.92,165.0
39.93,120.0
39.94,151.0
39.95,189.0
39.96,199.0
39.97,215.0
39.98,222.0
39.99,183.0
40.0,142.0
40.01,113.0
40.02,100.0
40.03,104.0
40.04,94.0
40.05,106.0
40.06,95.0
40.07,107.0
40.08,115.0
40.09,91.0
40.1,103.0
40.11,96.0
40.12,104.0
40.13,104.0
40.14,97.0
40.15,113.0
40.16,105.0
40.17,101.0
40.18,102.0
40.19,117.0
40.2,89.0
40.21,105.0
40.22,98.0
40.23,101.0
40.24,106.0
40.25,94.0
40.26,98.0
40.27,111.0
40.28,88.0
40.29,88.0
40.3,88.0
40.31,114.0
40.32,98.0
40.33,100.0
40.34,80.0
40.35,105.0
40.36,94.0
40.37,113.0
40.38,91.0
40.39,104.0
40.4,113.0
40.41,100.0
40.42,88.0
40.43,93.0
40.44,86.0
40.45,75.0
40.46,110.0
40.47,103.0
40.48,117.0
40.49,93.0
40.5,87.0
40.51,98.0
40.52,91.0
40.53,97.0
40.54,87.0
40.55,97.0
40.56,116.0
40.57,96.0
40.58,86.0
40.59,91.0
40.6,117.0
40.61,71.0
40.62,68.0
40.63,101.0
40.64,92.0
40.65,100.0
40.66,112.0
40.67,98.0
40.68,94.0
40.69,84.0
40.7,87.0
40.71,81.0
40.72,86.0
40.73,82.0
40.74,91.0
40.75,87.0
40.76,92.0
40.77,85.0
40.78,96.0
40.79,94.0
40.8,108.0
40.81,77.0
40.82,93.0
40.83,93.0
40.84,109.0
40.85,88.0
40.86,93.0
40.87,80.0
40.88,116.0
40.89,110.0
40.9,92.0
40.91,88.0
40.92,112.0
40.93,88.0
40.94,84.0
40.95,108.0
40.96,95.0
40.97,102.0
40.98,91.0
40.99,97.0
41.0,80.0
41.01,96.0
41.02,94.0
41.03,90.0
41.04,81.0
41.05,90.0
41.06,100.0
41.07,78.0
41.08,94.0
41.09,74.0
41.1,102.0
41.11,88.0
41.12,103.0
41.13,80.0
41.14,88.0
41.15,90.0
41.16,94.0
41.17,92.0
41.18,67.0
41.19,99.0
41.2,108.0
41.21,79.0
41.22,115.0
41.23,100.0
41.24,103.0
41.25,89.0
41.26,105.0
41.27,85.0
41.28,79.0
41.29,93.0
41.3,84.0
41.31,76.0
41.32,84.0
41.33,115.0
41.34,89.0
41.35,87.0
41.36,109.0
41.37,79.0
41.38,110.0
41.39,84.0
41.4,98.0
41.41,74.0
41.42,115.0
41.43,84.0
41.44,99.0
41.45,96.0
41.46,80.0
41.47,80.0
41.48,104.0
41.49,86.0
41.5,99.0
41.51,94.0
41.52,91.0
41.53,88.0
41.54,79.0
41.55,91.0
41.56,91.0
41.57,96.0
41.58,105.0
41.59,108.0
41.6,98.0
41.61,88.0
41.62,91.0
41.63,95.0
41.64,92.0
41.65,109.0
41.66,88.0
41.67,93.0
41.68,75.0
41.69,110.0
41.7,89.0
41.71,90.0
41.72,78.0
41.73,95.0
41.74,127.0
41.75,112.0
41.76,105.0
41.77,111.0
41.78,106.0
41.79,101.0
41.8,111.0
41.81,104.0
41.82,89.0
41.83,87.0
41.84,71.0
41.85,121.0
41.86,96.0
41.87,85.0
41.88,110.0
41.89,99.0
41.9,91.0
41.91,94.0
41.92,95.0
41.93,91.0
41.94,94.0
41.95,86.0
41.96,81.0
41.97,100.0
41.98,85.0
41.99,86.0
42.0,107.0
42.01,90.0
42.02,82.0
42.03,115.0
42.04,93.0
42.05,104.0
42.06,77.0
42.07,96.0
42.08,85.0
42.09,98.0
42.1,106.0
42.11,89.0
42.12,108.0
42.13,110.0
42.14,103.0
42.15,89.0
42.16,105.0
42.17,100.0
42.18,101.0
42.19,82.0
42.2,97.0
42.21,91.0
42.22,101.0
42.23,98.0
42.24,109.0
42.25,90.0
42.26,84.0
42.27,105.0
42.28,99.0
42.29,114.0
42.3,100.0
42.31,72.0
42.32,82.0
42.33,84.0
42.34,88.0
42.35,98.0
42.36,96.0
42.37,97.0
42.38,101.0
42.39,110.0
42.4,79.0
42.41,100.0
42.42,100.0
42.43,103.0
42.44,117.0
42.45,80.0
42.46,97.0
42.47,102.0
42.48,97.0
42.49,110.0
42.5,93.0
42.51,72.0
42.52,95.0
42.53,93.0
42.54,94.0
42.55,105.0
42.56,86.0
42.57,100.0
42.58,101.0
42.59,97.0
42.6,74.0
42.61,95.0
42.62,103.0
42.63,93.0
42.64,75.0
42.65,85.0
42.66,102.0
42.67,97.0
42.68,100.0
42.69,105.0
42.7,96.0
42.71,107.0
42.72,100.0
42.73,80.0
42.74,80.0
42.75,110.0
42.76,97.0
42.77,93.0
42.78,112.0
42.79,101.0
42.8,73.0
42.81,89.0
42.82,90.0
42.83,99.0
42.84,102.0
42.85,110.0
42.86,89.0
42.87,90.0
42.88,106.0
42.89,97.0
42.9,122.0
42.91,113.0
42.92,124.0
42.93,152.0
42.94,194.0
42.95,228.0
42.96,248.0
42.97,216.0
42.98,183.0
42.99,150.0
43.0,145.0
43.01,128.0
43.02,125.0
43.03,122.0
43.04,116.0
43.05,144.0
43.06,170.0
43.07,171.0
43.08,166.0
43.09,129.0
43.1,125.0
43.11,121.0
43.12,126.0
43.13,108.0
43.14,100.0
43.15,105.0
43.16,86.0
43.17,107.0
43.18,91.0
43.19,87.0
43.2,119.0
43.21,108.0
43.22,97.0
43.23,96.0
43.24,95.0
43.25,99.0
43.26,76.0
43.27,109.0
43.28,125.0
43.29,89.0
43.3,97.0
43.31,97.0
43.32,90.0
43.33,105.0
43.34,97.0
43.35,116.0
43.36,100.0
43.37,99.0
43.38,81.0
43.39,103.0
43.4,91.0
43.41,96.0
43.42,92.0
43.43,110.0
43.44,90.0
43.45,105.0
43.46,99.0
43.47,99.0
43.48,91.0
43.49,99.0
43.5,77.0
43.51,100.0
43.52,100.0
43.53,93.0
43.54,100.0
43.55,99.0
43.56,96.0
43.57,101.0
43.58,102.0
43.59,92.0
43.6,93.0
43.61,89.0
43.62,96.0
43.63,99.0
43.64,99.0
43.65,113.0
43.66,99.0
43.67,107.0
43.68,98.0
43.69,108.0
43.7,95.0
43.71,80.0
43.72,111.0
43.73,102.0
43.74,100.0
43.75,87.0
43.76,93.0
43.77,92.0
43.78,93.0
43.79,94.0
43.8,97.0
43.81,103.0
43.82,105.0
43.83,98.0
43.84,82.0
43.85,109.0
43.86,107.0
43.87,80.0
43.88,68.0
43.89,88.0
43.9,86.0
43.91,100.0
43.92,101.0
43.93,86.0
43.94,101.0
43.95,76.0
43.96,93.0
43.97,96.0
43.98,91.0
43.99,117.0
44.0,97.0
44.01,80.0
44.02,92.0
44.03,104.0
44.04,88.0
44.05,81.0
44.06,104.0
44.07,112.0
44.08,106.0
44.09,107.0
44.1,82.0
44.11,115.0
44.12,94.0
44.13,103.0
44.14,96.0
44.15,99.0
44.16,95.0
44.17,110.0
44.18,74.0
44.19,108.0
44.2,90.0
44.21,98.0
44.22,98.0
44.23,115.0
44.24,83.0
44.25,83.0
44.26,83.0
44.27,89.0
44.28,85.0
44.29,87.0
44.3,93.0
44.31,107.0
44.32,85.0
44.33,104.0
44.34,83.0
44.35,79.0
44.36,101.0
44.37,97.0
44.38,104.0
44.39,108.0
44.4,99.0
44.41,107.0
44.42,105.0
44.43,115.0
44.44,120.0
44.45,119.0
44.46,116.0
44.47,94.0
44.48,96.0
44.49,105.0
44.5,105.0
44.51,95.0
44.52,92.0
44.53,96.0
44.54,105.0
44.55,119.0
44.56,114.0
44.57,100.0
44.58,92.0
44.59,94.0
44.6,106.0
44.61,103.0
44.62,102.0
44.63,83.0
44.64,101.0
44.65,90.0
44.66,93.0
44.67,105.0
44.68,111.0
44.69,91.0
44.7,84.0
44.71,98.0
44.72,109.0
44.73,90.0
44.74,96.0
44.75,95.0
44.76,87.0
44.77,80.0
44.78,100.0
44.79,82.0
44.8,99.0
44.81,79.0
44.82,97.0
44.83,97.0
44.84,99.0
44.85,94.0
44.86,75.0
44.87,96.0
44.88,81.0
44.89,83.0
44.9,92.0
44.91,103.0
44.92,96.0
44.93,114.0
44.94,93.0
44.95,102.0
44.96,97.0
44.97,78.0
44.98,108.0
44.99,80.0
45.0,93.0
45.01,105.0
45.02,99.0
45.03,98.0
45.04,100.0
45.05,100.0
45.06,93.0
45.07,100.0
45.08,94.0
45.09,99.0
45.1,105.0
45.11,87.0
45.12,93.0
45.13,76.0
45.14,79.0
45.15,81.0
45.16,113.0
45.17,88.0
45.18,93.0
45.19,80.0
45.2,108.0
45.21,109.0
45.22,88.0
45.23,87.0
45.24,90.0
45.25,99.0
45.26,86.0
45.27,94.0
45.28,106.0
45.29,100.0
45.3,100.0
45.31,94.0
45.32,96.0
45.33,93.0
45.34,103.0
45.35,96.0
45.36,97.0
45.37,108.0
45.38,92.0
45.39,94.0
45.4,87.0
45.41,104.0
45.42,113.0
45.43,109.0
45.44,78.0
45.45,93.0
45.46,87.0
45.47,94.0
45.48,91.0
45.49,92.0
45.5,106.0
45.51,105.0
45.52,103.0
45.53,93.0
45.54,107.0
45.55,85.0
45.56,101.0
45.57,98.0
45.58,84.0
45.59,101.0
45.6,98.0
45.61,107.0
45.62,129.0
45.63,88.0
45.64,87.0
45.65,94.0
45.66,100.0
45.67,89.0
45.68,101.0
45.69,88.0
45.7,95.0
45.71,91.0
45.72,98.0
45.73,77.0
45.74,87.0
45.75,79.0
45.76,93.0
45.77,96.0
45.78,78.0
45.79,82.0
45.8,106.0
45.81,80.0
45.82,95.0
45.83,100.0
45.84,75.0
45.85,95.0
45.86,94.0
45.87,87.0
45.88,85.0
45.89,116.0
45.9,119.0
45.91,80.0
45.92,84.0
45.93,97.0
45.94,98.0
45.95,81.0
45.96,98.0
45.97,70.0
45.98,84.0
45.99,103.0
46.0,87.0
46.01,93.0
46.02,89.0
46.03,95.0
46.04,88.0
46.05,94.0
46.06,108.0
46.07,96.0
46.08,87.0
46.09,91.0
46.1,90.0
46.11,90.0
46.12,90.0
46.13,93.0
46.14,96.0
46.15,84.0
46.16,83.0
46.17,105.0
46.18,86.0
46.19,99.0
46.2,94.0
46.21,96.0
46.22,91.0
46.23,94.0
46.24,99.0
46.25,78.0
46.26,105.0
46.27,85.0
46.28,99.0
46.29,95.0
46.3,102.0
46.31,89.0
46.32,112.0
46.33,82.0
46.34,94.0
46.35,77.0
46.36,86.0
46.37,105.0
46.38,102.0
46.39,109.0
46.4,81.0
46.41,93.0
46.42,109.0
46.43,100.0
46.44,78.0
46.45,97.0
46.46,96.0
46.47,98.0
46.48,96.0
46.49,95.0
46.5,76.0
46.51,98.0
46.52,87.0
46.53,101.0
46.54,86.0
46.55,95.0
46.56,99.0
46.57,85.0
46.58,91.0
46.59,104.0
46.6,89.0
46.61,97.0
46.62,87.0
46.63,88.0
46.64,94.0
46.65,88.0
46.66,83.0
46.67,94.0
46.68,83.0
46.69,101.0
46.7,94.0
46.71,87.0
46.72,86.0
46.73,100.0
46.74,95.0
46.75,88.0
46.76,86.0
46.77,92.0
46.78,94.0
46.79,99.0
46.8,100.0
46.81,87.0
46.82,94.0
46.83,87.0
46.84,82.0
46.85,92.0
46.86,101.0
46.87,102.0
46.88,112.0
46.89,87.0
46.9,93.0
46.91,80.0
46.92,102.0
46.93,85.0
46.94,82.0
46.95,95.0
46.96,82.0
46.97,98.0
46.98,98.0
46.99,83.0
47.0,86.0
47.01,84.0
47.02,98.0
47.03,93.0
47.04,101.0
47.05,98.0
47.06,106.0
47.07,105.0
47.08,91.0
47.09,101.0
47.1,113.0
47.11,94.0
47.12,85.0
47.13,93.0
47.14,79.0
47.15,78.0
47.16,88.0
47.17,99.0
47.18,102.0
47.19,102.0
47.2,93.0
47.21,99.0
47.22,104.0
47.23,101.0
47.24,94.0
47.25,81.0
47.26,106.0
47.27,76.0
47.28,88.0
47.29,70.0
47.3,109.0
47.31,100.0
47.32,102.0
47.33,102.0
47.34,89.0
47.35,92.0
47.36,100.0
47.37,108.0
47.38,80.0
47.39,86.0
47.4,96.0
47.41,79.0
47.42,98.0
47.43,109.0
47.44,92.0
47.45,89.0
47.46,98.0
47.47,84.0
47.48,87.0
47.49,100.0
47.5,94.0
47.51,107.0
47.52,89.0
47.53,101.0
47.54,94.0
47.55,74.0
47.56,81.0
47.57,102.0
47.58,85.0
47.59,107.0
47.6,89.0
47.61,99.0
47.62,86.0
47.63,96.0
47.64,104.0
47.65,96.0
47.66,86.0
47.67,99.0
47.68,108.0
47.69,83.0
47.7,102.0
47.71,114.0
47.72,93.0
47.73,93.0
47.74,88.0
47.75,96.0
47.76,89.0
47.77,110.0
47.78,92.0
47.79,94.0
47.8,102.0
47.81,101.0
47.82,91.0
47.83,98.0
47.84,94.0
47.85,104.0
47.86,91.0
47.87,95.0
47.88,108.0
47.89,94.0
47.9,74.0
47.91,117.0
47.92,125.0
47.93,109.0
47.94,96.0
47.95,80.0
47.96,85.0
47.97,85.0
47.98,104.0
47.99,88.0
48.0,84.0
48.01,96.0
48.02,89.0
48.03,94.0
48.04,96.0
48.05,83.0
48.06,86.0
48.07,105.0
48.08,112.0
48.09,96.0
48.1,89.0
48.11,91.0
48.12,86.0
48.13,89.0
48.14,103.0
48.15,110.0
48.16,101.0
48.17,96.0
48.18,96.0
48.19,73.0
48.2,96.0
48.21,96.0
48.22,86.0
48.23,102.0
48.24,96.0
48.25,97.0
48.26,91.0
48.27,96.0
48.28,118.0
48.29,84.0
48.3,96.0
48.31,93.0
48.32,89.0
48.33,97.0
48.34,93.0
48.35,95.0
48.36,93.0
48.37,109.0
48.38,86.0
48.39,94.0
48.4,96.0
48.41,87.0
48.42,84.0
48.43,96.0
48.44,76.0
48.45,102.0
48.46,103.0
48.47,98.0
48.48,100.0
48.49,102.0
48.5,98.0
48.51,90.0
48.52,111.0
48.53,105.0
48.54,113.0
48.55,100.0
48.56,85.0
48.57,97.0
48.58,90.0
48.59,106.0
48.6,125.0
48.61,145.0
48.62,125.0
48.63,165.0
48.64,207.0
48.65,277.0
48.66,431.0
48.67,407.0
48.68,339.0
48.69,269.0
48.7,204.0
48.71,170.0
48.72,133.0
48.73,152.0
48.74,98.0
48.75,136.0
48.76,159.0
48.77,157.0
48.78,203.0
48.79,268.0
48.8,278.0
48.81,215.0
48.82,180.0
48.83,161.0
48.84,129.0
48.85,110.0
48.86,100.0
48.87,93.0
48.88,124.0
48.89,119.0
48.9,108.0
48.91,109.0
48.92,101.0
48.93,100.0
48.94,103.0
48.95,112.0
48.96,119.0
48.97,94.0
48.98,82.0
48.99,114.0
49.0,108.0
49.01,106.0
49.02,121.0
49.03,91.0
49.04,93.0
49.05,88.0
49.06,100.0
49.07,105.0
49.08,99.0
49.09,85.0
49.1,98.0
49.11,116.0
49.12,82.0
49.13,99.0
49.14,98.0
49.15,102.0
49.16,78.0
49.17,92.0
49.18,84.0
49.19,101.0
49.2,85.0
49.21,94.0
49.22,104.0
49.23,77.0
49.24,104.0
49.25,101.0
49.26,101.0
49.27,110.0
49.28,84.0
49.29,107.0
49.3,86.0
49.31,83.0
49.32,95.0
49.33,95.0
49.34,95.0
49.35,99.0
49.36,86.0
49.37,95.0
49.38,82.0
49.39,92.0
49.4,103.0
49.41,95.0
49.42,86.0
49.43,94.0
49.44,91.0
49.45,89.0
49.46,90.0
49.47,94.0
49.48,106.0
49.49,88.0
49.5,99.0
49.51,86.0
49.52,83.0
49.53,74.0
49.54,86.0
49.55,78.0
49.56,107.0
49.57,102.0
49.58,89.0
49.59,95.0
49.6,79.0
49.61,91.0
49.62,95.0
49.63,95.0
49.64,84.0
49.65,94.0
49.66,97.0
49.67,81.0
49.68,99.0
49.69,79.0
49.7,87.0
49.71,98.0
49.72,86.0
49.73,78.0
49.74,77.0
49.75,106.0
49.76,82.0
49.77,82.0
49.78,94.0
49.79,91.0
49.8,117.0
49.81,124.0
49.82,102.0
49.83,91.0
49.84,109.0
49.85,90.0
49.86,94.0
49.87,110.0
49.88,84.0
49.89,114.0
49.9,102.0
49.91,105.0
49.92,109.0
49.93,88.0
49.94,87.0
49.95,104.0
49.96,97.0
49.97,94.0
49.98,89.0
49.99,132.0
50.0,134.0
50.01,161.0
50.02,165.0
50.03,153.0
50.04,135.0
50.05,118.0
50.06,78.0
50.07,110.0
50.08,83.0
50.09,84.0
50.1,97.0
50.11,94.0
50.12,97.0
50.13,134.0
50.14,118.0
50.15,142.0
50.16,134.0
50.17,125.0
50.18,111.0
50.19,92.0
50.2,98.0
50.21,80.0
50.22,91.0
50.23,88.0
50.24,90.0
50.25,91.0
50.26,107.0
50.27,102.0
50.28,87.0
50.29,99.0
50.3,86.0
50.31,87.0
50.32,119.0
50.33,93.0
50.34,89.0
50.35,88.0
50.36,98.0
50.37,92.0
50.38,93.0
50.39,96.0
50.4,86.0
50.41,92.0
50.42,77.0
50.43,90.0
50.44,74.0
50.45,89.0
50.46,93.0
50.47,86.0
50.48,88.0
50.49,87.0
50.5,84.0
50.51,108.0
50.52,92.0
50.53,122.0
50.54,83.0
50.55,98.0
50.56,82.0
50.57,98.0
50.58,95.0
50.59,88.0
50.6,79.0
50.61,102.0
50.62,94.0
50.63,92.0
50.64,85.0
50.65,87.0
50.66,105.0
50.67,70.0
50.68,99.0
50.69,105.0
50.7,83.0
50.71,91.0
50.72,102.0
50.73,88.0
50.74,104.0
50.75,108.0
50.76,90.0
50.77,91.0
50.78,90.0
50.79,99.0
50.8,85.0
50.81,118.0
50.82,74.0
50.83,91.0
50.84,89.0
50.85,97.0
50.86,102.0
50.87,89.0
50.88,90.0
50.89,94.0
50.9,87.0
50.91,82.0
50.92,111.0
50.93,100.0
50.94,110.0
50.95,75.0
50.96,101.0
50.97,100.0
50.98,95.0
50.99,87.0
51.0,89.0
51.01,84.0
51.02,118.0
51.03,105.0
51.04,101.0
51.05,91.0
51.06,98.0
51.07,99.0
51.08,91.0
51.09,82.0
51.1,76.0
51.11,86.0
51.12,82.0
51.13,94.0
51.14,90.0
51.15,97.0
51.16,83.0
51.17,75.0
51.18,99.0
51.19,94.0
51.2,107.0
51.21,85.0
51.22,97.0
51.23,88.0
51.24,87.0
51.25,84.0
51.26,101.0
51.27,75.0
51.28,103.0
51.29,102.0
51.3,91.0
51.31,92.0
51.32,85.0
51.33,73.0
51.34,79.0
51.35,82.0
51.36,110.0
51.37,80.0
51.38,93.0
51.39,89.0
51.4,78.0
51.41,89.0
51.42,101.0
51.43,112.0
51.44,104.0
51.45,81.0
51.46,94.0
51.47,92.0
51.48,83.0
51.49,85.0
51.5,81.0
51.51,91.0
51.52,92.0
51.53,93.0
51.54,91.0
51.55,98.0
51.56,104.0
51.57,91.0
51.58,90.0
51.59,90.0
51.6,98.0
51.61,95.0
51.62,99.0
51.63,100.0
51.64,106.0
51.65,108.0
51.66,108.0
51.67,97.0
51.68,100.0
51.69,96.0
51.7,85.0
51.71,111.0
51.72,79.0
51.73,101.0
51.74,95.0
51.75,94.0
51.76,107.0
51.77,78.0
51.78,99.0
51.79,104.0
51.8,76.0
51.81,90.0
51.82,84.0
51.83,83.0
51.84,85.0
51.85,62.0
51.86,93.0
51.87,94.0
51.88,84.0
51.89,83.0
51.9,86.0
51.91,85.0
51.92,79.0
51.93,97.0
51.94,82.0
51.95,88.0
51.96,93.0
51.97,86.0
51.98,91.0
51.99,96.0
52.0,94.0
52.01,91.0
52.02,87.0
52.03,84.0
52.04,102.0
52.05,90.0
52.06,108.0
52.07,98.0
52.08,82.0
52.09,86.0
52.1,88.0
52.11,92.0
52.12,82.0
52.13,92.0
52.14,84.0
52.15,88.0
52.16,103.0
52.17,72.0
52.18,91.0
52.19,82.0
52.2,84.0
52.21,87.0
52.22,85.0
52.23,98.0
52.24,81.0
52.25,79.0
52.26,92.0
52.27,94.0
52.28,94.0
52.29,90.0
52.3,89.0
52.31,92.0
52.32,98.0
52.33,103.0
52.34,93.0
52.35,79.0
52.36,102.0
52.37,91.0
52.38,93.0
52.39,97.0
52.4,88.0
52.41,94.0
52.42,75.0
52.43,102.0
52.44,95.0
52.45,94.0
52.46,94.0
52.47,90.0
52.48,72.0
52.49,104.0
52.5,103.0
52.51,87.0
52.52,80.0
52.53,85.0
52.54,84.0
52.55,74.0
52.56,86.0
52.57,85.0
52.58,93.0
52.59,95.0
52.6,102.0
52.61,82.0
52.62,92.0
52.63,109.0
52.64,87.0
52.65,97.0
52.66,84.0
52.67,77.0
52.68,78.0
52.69,94.0
52.7,95.0
52.71,88.0
52.72,89.0
52.73,100.0
52.74,85.0
52.75,91.0
52.76,98.0
52.77,97.0
52.78,110.0
52.79,95.0
52.8,99.0
52.81,96.0
52.82,94.0
52.83,88.0
52.84,86.0
52.85,85.0
52.86,87.0
52.87,86.0
52.88,100.0
52.89,93.0
52.9,82.0
52.91,89.0
52.92,96.0
52.93,100.0
52.94,91.0
52.95,91.0
52.96,94.0
52.97,97.0
52.98,90.0
52.99,76.0
53.0,84.0
53.01,107.0
53.02,77.0
53.03,118.0
53.04,88.0
53.05,91.0
53.06,82.0
53.07,80.0
53.08,95.0
53.09,84.0
53.1,100.0
53.11,94.0
53.12,99.0
53.13,82.0
53.14,87.0
53.15,106.0
53.16,99.0
53.17,91.0
53.18,96.0
53.19,101.0
53.2,105.0
53.21,111.0
53.22,88.0
53.23,115.0
53.24,86.0
53.25,99.0
53.26,74.0
53.27,95.0
53.28,102.0
53.29,85.0
53.3,92.0
53.31,91.0
53.32,88.0
53.33,106.0
53.34,100.0
53.35,100.0
53.36,88.0
53.37,86.0
53.38,84.0
53.39,98.0
53.4,95.0
53.41,92.0
53.42,93.0
53.43,102.0
53.44,96.0
53.45,87.0
53.46,101.0
53.47,101.0
53.48,81.0
53.49,89.0
53.5,92.0
53.51,96.0
53.52,86.0
53.53,105.0
53.54,82.0
53.55,103.0
53.56,88.0
53.57,98.0
53.58,83.0
53.59,99.0
53.6,82.0
53.61,102.0
53.62,104.0
53.63,73.0
53.64,100.0
53.65,84.0
53.66,93.0
53.67,91.0
53.68,99.0
53.69,97.0
53.7,95.0
53.71,99.0
53.72,111.0
53.73,80.0
53.74,115.0
53.75,85.0
53.76,101.0
53.77,81.0
53.78,93.0
53.79,105.0
53.8,112.0
53.81,107.0
53.82,88.0
53.83,99.0
53.84,100.0
53.85,87.0
53.86,91.0
53.87,90.0
53.88,95.0
53.89,87.0
53.9,92.0
53.91,109.0
53.92,116.0
53.93,93.0
53.94,71.0
53.95,90.0
53.96,95.0
53.97,86.0
53.98,106.0
53.99,89.0
54.0,115.0
54.01,80.0
54.02,94.0
54.03,97.0
54.04,97.0
54.05,95.0
54.06,110.0
54.07,102.0
54.08,88.0
54.09,100.0
54.1,87.0
54.11,87.0
54.12,109.0
54.13,90.0
54.14,123.0
54.15,90.0
54.16,87.0
54.17,81.0
54.18,84.0
54.19,100.0
54.2,98.0
54.21,90.0
54.22,92.0
54.23,107.0
54.24,82.0
54.25,89.0
54.26,98.0
54.27,101.0
54.28,88.0
54.29,102.0
54.3,108.0
54.31,98.0
54.32,93.0
54.33,81.0
54.34,92.0
54.35,92.0
54.36,94.0
54.37,79.0
54.38,81.0
54.39,84.0
54.4,90.0
54.41,94.0
54.42,89.0
54.43,85.0
54.44,92.0
54.45,103.0
54.46,91.0
54.47,78.0
54.48,88.0
54.49,96.0
54.5,102.0
54.51,102.0
54.52,92.0
54.53,94.0
54.54,86.0
54.55,95.0
54.56,93.0
54.57,94.0
54.58,75.0
54.59,87.0
54.6,89.0
54.61,79.0
54.62,96.0
54.63,82.0
54.64,90.0
54.65,105.0
54.66,102.0
54.67,88.0
54.68,96.0
54.69,77.0
54.7,85.0
54.71,91.0
54.72,99.0
54.73,78.0
54.74,92.0
54.75,107.0
54.76,76.0
54.77,94.0
54.78,89.0
54.79,85.0
54.8,80.0
54.81,96.0
54.82,90.0
54.83,95.0
54.84,89.0
54.85,86.0
54.86,81.0
54.87,88.0
54.88,91.0
54.89,86.0
54.9,109.0
54.91,84.0
54.92,100.0
54.93,84.0
54.94,88.0
54.95,90.0
54.96,94.0
54.97,91.0
54.98,83.0
54.99,102.0
55.0,101.0
55.01,86.0
55.02,99.0
55.03,85.0
55.04,89.0
55.05,76.0
55.06,92.0
55.07,100.0
55.08,84.0
55.09,89.0
55.1,88.0
55.11,98.0
55.12,113.0
55.13,112.0
55.14,132.0
55.15,150.0
55.16,171.0
55.17,155.0
55.18,160.0
55.19,134.0
55.2,116.0
55.21,115.0
55.22,98.0
55.23,124.0
55.24,105.0
55.25,108.0
55.26,101.0
55.27,104.0
55.28,122.0
55.29,105.0
55.3,117.0
55.31,122.0
55.32,129.0
55.33,135.0
55.34,119.0
55.35,110.0
55.36,96.0
55.37,96.0
55.38,91.0
55.39,85.0
55.4,90.0
55.41,95.0
55.42,78.0
55.43,94.0
55.44,89.0
55.45,89.0
55.46,88.0
55.47,100.0
55.48,100.0
55.49,93.0
55.5,87.0
55.51,86.0
55.52,100.0
55.53,91.0
55.54,89.0
55.55,90.0
55.56,110.0
55.57,88.0
55.58,70.0
55.59,68.0
55.6,103.0
55.61,83.0
55.62,95.0
55.63,101.0
55.64,89.0
55.65,121.0
55.66,84.0
55.67,105.0
55.68,73.0
55.69,88.0
55.7,85.0
55.71,96.0
55.72,91.0
55.73,103.0
55.74,107.0
55.75,81.0
55.76,108.0
55.77,108.0
55.78,100.0
55.79,95.0
55.8,77.0
55.81,102.0
55.82,102.0
55.83,85.0
55.84,96.0
55.85,86.0
55.86,97.0
55.87,85.0
55.88,76.0
55.89,96.0
55.9,97.0
55.91,90.0
55.92,97.0
55.93,90.0
55.94,82.0
55.95,84.0
55.96,105.0
55.97,108.0
55.98,102.0
55.99,88.0
56.0,88.0
56.01,81.0
56.02,90.0
56.03,107.0
56.04,100.0
56.05,98.0
56.06,100.0
56.07,88.0
56.08,90.0
56.09,91.0
56.1,78.0
56.11,77.0
56.12,83.0
56.13,94.0
56.14,86.0
56.15,92.0
56.16,95.0
56.17,88.0
56.18,79.0
56.19,102.0
56.2,98.0
56.21,88.0
56.22,94.0
56.23,86.0
56.24,98.0
56.25,83.0
56.26,92.0
56.27,91.0
56.28,99.0
56.29,94.0
56.3,79.0
56.31,83.0
56.32,89.0
56.33,100.0
56.34,93.0
56.35,104.0
56.36,95.0
56.37,85.0
56.38,98.0
56.39,104.0
56.4,106.0
56.41,100.0
56.42,85.0
56.43,85.0
56.44,100.0
56.45,105.0
56.46,92.0
56.47,85.0
56.48,84.0
56.49,100.0
56.5,93.0
56.51,80.0
56.52,97.0
56.53,93.0
56.54,94.0
56.55,72.0
56.56,93.0
56.57,102.0
56.58,83.0
56.59,117.0
56.6,78.0
56.61,97.0
56.62,91.0
56.63,88.0
56.64,90.0
56.65,86.0
56.66,123.0
56.67,78.0
56.68,100.0
56.69,81.0
56.7,104.0
56.71,83.0
56.72,99.0
56.73,89.0
56.74,70.0
56.75,84.0
56.76,87.0
56.77,108.0
56.78,88.0
56.79,106.0
56.8,94.0
56.81,93.0
56.82,102.0
56.83,94.0
56.84,80.0
56.85,88.0
56.86,103.0
56.87,86.0
56.88,108.0
56.89,94.0
56.9,93.0
56.91,92.0
56.92,97.0
56.93,88.0
56.94,92.0
56.95,75.0
56.96,100.0
56.97,103.0
56.98,100.0
56.99,106.0
57.0,93.0
57.01,73.0
57.02,93.0
57.03,105.0
57.04,83.0
57.05,84.0
57.06,84.0
57.07,86.0
57.08,88.0
57.09,91.0
57.1,90.0
57.11,103.0
57.12,97.0
57.13,92.0
57.14,83.0
57.15,99.0
57.16,76.0
57.17,82.0
57.18,90.0
57.19,104.0
57.2,85.0
57.21,96.0
57.22,83.0
57.23,100.0
57.24,105.0
57.25,104.0
57.26,92.0
57.27,88.0
57.28,86.0
57.29,86.0
57.3,94.0
57.31,91.0
57.32,86.0
57.33,99.0
57.34,109.0
57.35,113.0
57.36,104.0
57.37,97.0
57.38,93.0
57.39,118.0
57.4,105.0
57.41,108.0
57.42,116.0
57.43,100.0
57.44,88.0
57.45,76.0
57.46,100.0
57.47,112.0
57.48,107.0
57.49,111.0
57.5,101.0
57.51,113.0
57.52,115.0
57.53,123.0
57.54,117.0
57.55,123.0
57.56,137.0
57.57,144.0
57.58,156.0
57.59,204.0
57.6,293.0
57.61,423.0
57.62,639.0
57.63,781.0
57.64,703.0
57.65,488.0
57.66,342.0
57.67,246.0
57.68,183.0
57.69,159.0
57.7,175.0
57.71,126.0
57.72,145.0
57.73,138.0
57.74,166.0
57.75,184.0
57.76,217.0
57.77,307.0
57.78,356.0
57.79,424.0
57.8,357.0
57.81,251.0
57.82,212.0
57.83,178.0
57.84,124.0
57.85,114.0
57.86,111.0
57.87,106.0
57.88,126.0
57.89,97.0
57.9,111.0
57.91,96.0
57.92,116.0
57.93,115.0
57.94,107.0
57.95,100.0
57.96,99.0
57.97,94.0
57.98,95.0
57.99,96.0
58.0,109.0
58.01,107.0
58.02,104.0
58.03,111.0
58.04,104.0
58.05,102.0
58.06,109.0
58.07,91.0
58.08,90.0
58.09,107.0
58.1,102.0
58.11,90.0
58.12,101.0
58.13,82.0
58.14,110.0
58.15,84.0
58.16,107.0
58.17,95.0
58.18,94.0
58.19,91.0
58.2,88.0
58.21,83.0
58.22,111.0
58.23,93.0
58.24,72.0
58.25,79.0
58.26,87.0
58.27,88.0
58.28,81.0
58.29,106.0
58.3,90.0
58.31,110.0
58.32,92.0
58.33,106.0
58.34,100.0
58.35,90.0
58.36,85.0
58.37,92.0
58.38,98.0
58.39,106.0
58.4,82.0
58.41,91.0
58.42,90.0
58.43,99.0
58.44,83.0
58.45,85.0
58.46,83.0
58.47,84.0
58.48,96.0
58.49,98.0
58.5,103.0
58.51,103.0
58.52,91.0
58.53,92.0
58.54,74.0
58.55,77.0
58.56,91.0
58.57,95.0
58.58,103.0
58.59,83.0
58.6,97.0
58.61,95.0
58.62,75.0
58.63,110.0
58.64,81.0
58.65,99.0
58.66,94.0
58.67,94.0
58.68,89.0
58.69,93.0
58.7,90.0
58.71,100.0
58.72,99.0
58.73,102.0
58.74,82.0
58.75,94.0
58.76,97.0
58.77,104.0
58.78,92.0
58.79,81.0
58.8,115.0
58.81,95.0
58.82,98.0
58.83,112.0
58.84,106.0
58.85,95.0
58.86,96.0
58.87,104.0
58.88,93.0
58.89,109.0
58.9,81.0
58.91,94.0
58.92,107.0
58.93,84.0
58.94,80.0
58.95,87.0
58.96,98.0
58.97,89.0
58.98,91.0
58.99,98.0
59.0,106.0
59.01,83.0
59.02,105.0
59.03,93.0
59.04,90.0
59.05,96.0
59.06,80.0
59.07,99.0
59.08,84.0
59.09,100.0
59.1,80.0
59.11,93.0
59.12,109.0
59.13,84.0
59.14,95.0
59.15,75.0
59.16,81.0
59.17,99.0
59.18,96.0
59.19,91.0
59.2,90.0
59.21,95.0
59.22,87.0
59.23,100.0
59.24,88.0
59.25,85.0
59.26,103.0
59.27,86.0
59.28,88.0
59.29,90.0
59.3,89.0
59.31,68.0
59.32,85.0
59.33,87.0
59.34,95.0
59.35,78.0
59.36,100.0
59.37,83.0
59.38,84.0
59.39,90.0
59.4,106.0
59.41,79.0
59.42,90.0
59.43,100.0
59.44,95.0
59.45,78.0
59.46,99.0
59.47,81.0
59.48,93.0
59.49,107.0
59.5,91.0
59.51,99.0
59.52,80.0
59.53,102.0
59.54,82.0
59.55,91.0
59.56,79.0
59.57,96.0
59.58,90.0
59.59,82.0
59.6,86.0
59.61,98.0
59.62,91.0
59.63,101.0
59.64,98.0
59.65,82.0
59.66,89.0
59.67,99.0
59.68,100.0
59.69,104.0
59.7,108.0
59.71,88.0
59.72,111.0
59.73,100.0
59.74,118.0
59.75,96.0
59.76,75.0
59.77,91.0
59.78,98.0
59.79,121.0
59.8,104.0
59.81,97.0
59.82,79.0
59.83,88.0
59.84,104.0
59.85,86.0
59.86,102.0
59.87,97.0
59.88,117.0
59.89,111.0
59.9,124.0
59.91,100.0
59.92,108.0
59.93,120.0
59.94,119.0
59.95,102.0
59.96,172.0
59.97,168.0
59.98,185.0
59.99,268.0
60.0,344.0
60.01,442.0
60.02,467.0
60.03,424.0
60.04,346.0
60.05,240.0
60.06,184.0
60.07,157.0
60.08,148.0
60.09,144.0
60.1,144.0
60.11,121.0
60.12,123.0
60.13,129.0
60.14,165.0
60.15,167.0
60.16,214.0
60.17,245.0
60.18,251.0
60.19,269.0
60.2,229.0
60.21,206.0
60.22,163.0
60.23,125.0
60.24,146.0
60.25,110.0
60.26,122.0
60.27,115.0
60.28,100.0
60.29,118.0
60.3,94.0
60.31,99.0
60.32,90.0
60.33,99.0
60.34,97.0
60.35,70.0
60.36,99.0
60.37,94.0
60.38,99.0
60.39,84.0
60.4,85.0
60.41,99.0
60.42,97.0
60.43,84.0
60.44,95.0
60.45,92.0
60.46,89.0
60.47,84.0
60.48,115.0
60.49,90.0
60.5,95.0
60.51,70.0
60.52,89.0
60.53,108.0
60.54,93.0
60.55,81.0
60.56,85.0
60.57,103.0
60.58,110.0
60.59,78.0
60.6,99.0
60.61,106.0
60.62,78.0
60.63,94.0
60.64,89.0
60.65,109.0
60.66,78.0
60.67,81.0
60.68,71.0
60.69,88.0
60.7,102.0
60.71,86.0
60.72,84.0
60.73,96.0
60.74,79.0
60.75,90.0
60.76,91.0
60.77,63.0
60.78,90.0
60.79,90.0
60.8,89.0
60.81,84.0
60.82,98.0
60.83,90.0
60.84,91.0
60.85,83.0
60.86,72.0
60.87,94.0
60.88,93.0
60.89,86.0
60.9,105.0
60.91,102.0
60.92,83.0
60.93,83.0
60.94,96.0
60.95,78.0
60.96,67.0
60.97,123.0
60.98,91.0
60.99,74.0
61.0,91.0
61.01,89.0
61.02,82.0
61.03,89.0
61.04,104.0
61.05,97.0
61.06,76.0
61.07,86.0
61.08,73.0
61.09,89.0
61.1,90.0
61.11,92.0
61.12,82.0
61.13,94.0
61.14,89.0
61.15,93.0
61.16,108.0
61.17,99.0
61.18,104.0
61.19,84.0
61.2,83.0
61.21,92.0
61.22,93.0
61.23,69.0
61.24,88.0
61.25,94.0
61.26,98.0
61.27,87.0
61.28,86.0
61.29,86.0
61.3,93.0
61.31,79.0
61.32,100.0
61.33,87.0
61.34,106.0
61.35,93.0
61.36,84.0
61.37,86.0
61.38,93.0
61.39,77.0
61.4,93.0
61.41,96.0
61.42,85.0
61.43,85.0
61.44,101.0
61.45,91.0
61.46,91.0
61.47,92.0
61.48,90.0
61.49,106.0
61.5,104.0
61.51,85.0
61.52,106.0
61.53,89.0
61.54,111.0
61.55,84.0
61.56,91.0
61.57,88.0
61.58,85.0
61.59,97.0
61.6,60.0
61.61,93.0
61.62,95.0
61.63,95.0
61.64,93.0
61.65,109.0
61.66,88.0
61.67,89.0
61.68,93.0
61.69,100.0
61.7,95.0
61.71,91.0
61.72,91.0
61.73,87.0
61.74,108.0
61.75,81.0
61.76,86.0
61.77,81.0
61.78,96.0
61.79,81.0
61.8,93.0
61.81,75.0
61.82,98.0
61.83,88.0
61.84,96.0
61.85,91.0
61.86,95.0
61.87,93.0
61.88,94.0
61.89,85.0
61.9,84.0
61.91,106.0
61.92,85.0
61.93,121.0
61.94,95.0
61.95,85.0
61.96,96.0
61.97,99.0
61.98,79.0
61.99,104.0
62.0,66.0
62.01,75.0
62.02,97.0
62.03,87.0
62.04,98.0
62.05,73.0
62.06,111.0
62.07,102.0
62.08,95.0
62.09,85.0
62.1,80.0
62.11,103.0
62.12,85.0
62.13,96.0
62.14,95.0
62.15,85.0
62.16,87.0
62.17,91.0
62.18,87.0
62.19,76.0
62.2,84.0
62.21,86.0
62.22,71.0
62.23,81.0
62.24,88.0
62.25,79.0
62.26,89.0
62.27,80.0
62.28,75.0
62.29,101.0
62.3,110.0
62.31,88.0
62.32,75.0
62.33,95.0
62.34,84.0
62.35,92.0
62.36,90.0
62.37,90.0
62.38,106.0
62.39,75.0
62.4,88.0
62.41,79.0
62.42,82.0
62.43,84.0
62.44,103.0
62.45,71.0
62.46,96.0
62.47,91.0
62.48,102.0
62.49,106.0
62.5,94.0
62.51,93.0
62.52,100.0
62.53,71.0
62.54,84.0
62.55,84.0
62.56,73.0
62.57,90.0
62.58,102.0
62.59,91.0
62.6,71.0
62.61,108.0
62.62,75.0
62.63,99.0
62.64,91.0
62.65,83.0
62.66,108.0
62.67,80.0
62.68,89.0
62.69,84.0
62.7,99.0
62.71,105.0
62.72,98.0
62.73,78.0
62.74,109.0
62.75,106.0
62.76,88.0
62.77,88.0
62.78,81.0
62.79,87.0
62.8,80.0
62.81,92.0
62.82,73.0
62.83,96.0
62.84,86.0
62.85,109.0
62.86,108.0
62.87,89.0
62.88,99.0
62.89,91.0
62.9,92.0
62.91,86.0
62.92,81.0
62.93,89.0
62.94,90.0
62.95,103.0
62.96,89.0
62.97,90.0
62.98,95.0
62.99,87.0
63.0,88.0
63.01,98.0
63.02,81.0
63.03,75.0
63.04,88.0
63.05,76.0
63.06,95.0
63.07,90.0
63.08,94.0
63.09,106.0
63.1,104.0
63.11,96.0
63.12,85.0
63.13,90.0
63.14,81.0
63.15,74.0
63.16,89.0
63.17,84.0
63.18,85.0
63.19,88.0
63.2,97.0
63.21,78.0
63.22,93.0
63.23,76.0
63.24,86.0
63.25,89.0
63.26,85.0
63.27,85.0
63.28,97.0
63.29,89.0
63.3,96.0
63.31,86.0
63.32,88.0
63.33,89.0
63.34,79.0
63.35,77.0
63.36,83.0
63.37,84.0
63.38,83.0
63.39,88.0
63.4,83.0
63.41,100.0
63.42,86.0
63.43,102.0
63.44,84.0
63.45,114.0
63.46,95.0
63.47,83.0
63.48,92.0
63.49,93.0
63.5,95.0
63.51,112.0
63.52,92.0
63.53,70.0
63.54,100.0
63.55,79.0
63.56,92.0
63.57,91.0
63.58,72.0
63.59,94.0
63.6,79.0
63.61,101.0
63.62,77.0
63.63,85.0
63.64,85.0
63.65,95.0
63.66,83.0
63.67,102.0
63.68,96.0
63.69,98.0
63.7,89.0
63.71,89.0
63.72,107.0
63.73,85.0
63.74,88.0
63.75,91.0
63.76,101.0
63.77,72.0
63.78,86.0
63.79,107.0
63.8,99.0
63.81,90.0
63.82,82.0
63.83,94.0
63.84,87.0
63.85,88.0
63.86,89.0
63.87,81.0
63.88,62.0
63.89,102.0
63.9,86.0
63.91,99.0
63.92,97.0
63.93,106.0
63.94,77.0
63.95,95.0
63.96,88.0
63.97,88.0
63.98,95.0
63.99,93.0
64.0,70.0
64.01,103.0
64.02,92.0
64.03,86.0
64.04,73.0
64.05,83.0
64.06,99.0
64.07,80.0
64.08,106.0
64.09,82.0
64.1,90.0
64.11,78.0
64.12,93.0
64.13,94.0
64.14,92.0
64.15,86.0
64.16,87.0
64.17,103.0
64.18,102.0
64.19,93.0
64.2,73.0
64.21,99.0
64.22,102.0
64.23,102.0
64.24,83.0
64.25,97.0
64.26,89.0
64.27,89.0
64.28,100.0
64.29,98.0
64.3,80.0
64.31,82.0
64.32,86.0
64.33,90.0
64.34,80.0
64.35,72.0
64.36,98.0
64.37,92.0
64.38,86.0
64.39,93.0
64.4,99.0
64.41,103.0
64.42,108.0
64.43,91.0
64.44,97.0
64.45,93.0
64.46,92.0
64.47,69.0
64.48,107.0
64.49,103.0
64.5,87.0
64.51,114.0
64.52,94.0
64.53,95.0
64.54,90.0
64.55,87.0
64.56,101.0
64.57,102.0
64.58,101.0
64.59,142.0
64.6,122.0
64.61,125.0
64.62,154.0
64.63,177.0
64.64,224.0
64.65,190.0
64.66,163.0
64.67,165.0
64.68,124.0
64.69,100.0
64.7,129.0
64.71,85.0
64.72,103.0
64.73,101.0
64.74,102.0
64.75,108.0
64.76,118.0
64.77,119.0
64.78,96.0
64.79,124.0
64.8,132.0
64.81,117.0
64.82,148.0
64.83,141.0
64.84,140.0
64.85,118.0
64.86,109.0
64.87,100.0
64.88,109.0
64.89,84.0
64.9,78.0
64.91,102.0
64.92,84.0
64.93,81.0
64.94,98.0
64.95,107.0
64.96,79.0
64.97,97.0
64.98,80.0
64.99,102.0
65.0,86.0
65.01,89.0
65.02,77.0
65.03,88.0
65.04,89.0
65.05,79.0
65.06,98.0
65.07,87.0
65.08,89.0
65.09,80.0
65.1,73.0
65.11,108.0
65.12,72.0
65.13,85.0
65.14,77.0
65.15,94.0
65.16,93.0
65.17,76.0
65.18,112.0
65.19,100.0
65.2,82.0
65.21,81.0
65.22,93.0
65.23,92.0
65.24,92.0
65.25,92.0
65.26,87.0
65.27,85.0
65.28,68.0
65.29,92.0
65.3,107.0
65.31,85.0
65.32,106.0
65.33,102.0
65.34,85.0
65.35,99.0
65.36,99.0
65.37,99.0
65.38,101.0
65.39,91.0
65.4,101.0
65.41,81.0
65.42,89.0
65.43,97.0
65.44,81.0
65.45,86.0
65.46,94.0
65.47,97.0
65.48,83.0
65.49,74.0
65.5,96.0
65.51,108.0
65.52,92.0
65.53,97.0
65.54,90.0
65.55,99.0
65.56,72.0
65.57,84.0
65.58,94.0
65.59,103.0
65.6,78.0
65.61,107.0
65.62,90.0
65.63,76.0
65.64,85.0
65.65,76.0
65.66,104.0
65.67,78.0
65.68,89.0
65.69,92.0
65.7,100.0
65.71,96.0
65.72,97.0
65.73,89.0
65.74,104.0
65.75,91.0
65.76,91.0
65.77,98.0
65.78,99.0
65.79,103.0
65.8,103.0
65.81,96.0
65.82,83.0
65.83,95.0
65.84,116.0
65.85,87.0
65.86,98.0
65.87,87.0
65.88,96.0
65.89,87.0
65.9,88.0
65.91,103.0
65.92,76.0
65.93,80.0
65.94,95.0
65.95,111.0
65.96,93.0
65.97,107.0
65.98,89.0
65.99,98.0
66.0,92.0
66.01,86.0
66.02,86.0
66.03,95.0
66.04,83.0
66.05,92.0
66.06,87.0
66.07,105.0
66.08,90.0
66.09,92.0
66.1,87.0
66.11,98.0
66.12,84.0
66.13,104.0
66.14,80.0
66.15,101.0
66.16,91.0
66.17,79.0
66.18,95.0
66.19,74.0
66.2,97.0
66.21,98.0
66.22,80.0
66.23,82.0
66.24,97.0
66.25,94.0
66.26,81.0
66.27,95.0
66.28,110.0
66.29,101.0
66.3,78.0
66.31,93.0
66.32,101.0
66.33,87.0
66.34,88.0
66.35,84.0
66.36,115.0
66.37,87.0
66.38,83.0
66.39,84.0
66.4,90.0
66.41,88.0
66.42,107.0
66.43,97.0
66.44,79.0
66.45,77.0
66.46,90.0
66.47,92.0
66.48,84.0
66.49,89.0
66.5,91.0
66.51,111.0
66.52,85.0
66.53,79.0
66.54,86.0
66.55,98.0
66.56,87.0
66.57,93.0
66.58,92.0
66.59,92.0
66.6,82.0
66.61,93.0
66.62,87.0
66.63,82.0
66.64,101.0
66.65,83.0
66.66,89.0
66.67,87.0
66.68,99.0
66.69,85.0
66.7,97.0
66.71,77.0
66.72,97.0
66.73,92.0
66.74,72.0
66.75,86.0
66.76,76.0
66.77,82.0
66.78,95.0
66.79,88.0
66.8,79.0
66.81,96.0
66.82,80.0
66.83,85.0
66.84,94.0
66.85,92.0
66.86,98.0
66.87,77.0
66.88,81.0
66.89,74.0
66.9,96.0
66.91,103.0
66.92,83.0
66.93,82.0
66.94,92.0
66.95,79.0
66.96,90.0
66.97,72.0
66.98,82.0
66.99,77.0
67.0,86.0
67.01,84.0
67.02,90.0
67.03,78.0
67.04,93.0
67.05,98.0
67.06,96.0
67.07,83.0
67.08,98.0
67.09,94.0
67.1,82.0
67.11,71.0
67.12,90.0
67.13,81.0
67.14,85.0
67.15,96.0
67.16,81.0
67.17,89.0
67.18,80.0
67.19,89.0
67.2,91.0
67.21,91.0
67.22,77.0
67.23,74.0
67.24,92.0
67.25,93.0
67.26,98.0
67.27,91.0
67.28,87.0
67.29,97.0
67.3,84.0
67.31,76.0
67.32,92.0
67.33,80.0
67.34,78.0
67.35,95.0
67.36,81.0
67.37,86.0
67.38,104.0
67.39,100.0
67.4,82.0
67.41,103.0
67.42,92.0
67.43,88.0
67.44,103.0
67.45,96.0
67.46,95.0
67.47,82.0
67.48,92.0
67.49,90.0
67.5,85.0
67.51,78.0
67.52,96.0
67.53,98.0
67.54,96.0
67.55,72.0
67.56,96.0
67.57,86.0
67.58,77.0
67.59,86.0
67.6,84.0
67.61,105.0
67.62,96.0
67.63,74.0
67.64,99.0
67.65,93.0
67.66,88.0
67.67,94.0
67.68,83.0
67.69,83.0
67.7,82.0
67.71,80.0
67.72,108.0
67.73,81.0
67.74,83.0
67.75,96.0
67.76,81.0
67.77,85.0
67.78,87.0
67.79,91.0
67.8,70.0
67.81,77.0
67.82,80.0
67.83,85.0
67.84,89.0
67.85,86.0
67.86,86.0
67.87,74.0
67.88,95.0
67.89,97.0
67.9,80.0
67.91,80.0
67.92,105.0
67.93,89.0
67.94,85.0
67.95,87.0
67.96,77.0
67.97,103.0
67.98,89.0
67.99,110.0
68.0,94.0
68.01,86.0
68.02,100.0
68.03,95.0
68.04,94.0
68.05,84.0
68.06,99.0
68.07,75.0
68.08,88.0
68.09,77.0
68.1,99.0
68.11,73.0
68.12,88.0
68.13,85.0
68.14,93.0
68.15,96.0
68.16,92.0
68.17,110.0
68.18,105.0
68.19,107.0
68.2,96.0
68.21,110.0
68.22,97.0
68.23,87.0
68.24,90.0
68.25,103.0
68.26,84.0
68.27,75.0
68.28,95.0
68.29,100.0
68.3,100.0
68.31,83.0
68.32,88.0
68.33,84.0
68.34,98.0
68.35,92.0
68.36,76.0
68.37,105.0
68.38,100.0
68.39,87.0
68.4,91.0
68.41,91.0
68.42,76.0
68.43,94.0
68.44,75.0
68.45,98.0
68.46,76.0
68.47,101.0
68.48,75.0
68.49,65.0
68.5,79.0
68.51,102.0
68.52,100.0
68.53,83.0
68.54,92.0
68.55,83.0
68.56,61.0
68.57,91.0
68.58,90.0
68.59,79.0
68.6,71.0
68.61,86.0
68.62,89.0
68.63,83.0
68.64,83.0
68.65,79.0
68.66,107.0
68.67,96.0
68.68,90.0
68.69,77.0
68.7,112.0
68.71,86.0
68.72,89.0
68.73,94.0
68.74,94.0
68.75,86.0
68.76,84.0
68.77,107.0
68.78,92.0
68.79,67.0
68.8,91.0
68.81,86.0
68.82,81.0
68.83,92.0
68.84,81.0
68.85,96.0
68.86,88.0
68.87,102.0
68.88,93.0
68.89,89.0
68.9,88.0
68.91,84.0
68.92,97.0
68.93,80.0
68.94,82.0
68.95,82.0
68.96,79.0
68.97,95.0
68.98,89.0
68.99,87.0
69.0,85.0
69.01,84.0
69.02,82.0
69.03,82.0
69.04,83.0
69.05,99.0
69.06,70.0
69.07,98.0
69.08,82.0
69.09,86.0
69.1,79.0
69.11,89.0
69.12,77.0
69.13,85.0
69.14,72.0
69.15,74.0
69.16,87.0
69.17,86.0
69.18,102.0
69.19,83.0
69.2,93.0
69.21,90.0
69.22,94.0
69.23,97.0
69.24,70.0
69.25,95.0
69.26,91.0
69.27,89.0
69.28,100.0
69.29,90.0
69.3,96.0
69.31,78.0
69.32,82.0
69.33,83.0
69.34,99.0
69.35,74.0
69.36,83.0
69.37,83.0
69.38,82.0
69.39,82.0
69.4,92.0
69.41,69.0
69.42,82.0
69.43,81.0
69.44,77.0
69.45,85.0
69.46,102.0
69.47,91.0
69.48,107.0
69.49,98.0
69.5,95.0
69.51,93.0
69.52,92.0
69.53,92.0
69.54,84.0
69.55,87.0
69.56,88.0
69.57,80.0
69.58,82.0
69.59,98.0
69.6,86.0
69.61,80.0
69.62,95.0
69.63,71.0
69.64,87.0
69.65,82.0
69.66,86.0
69.67,78.0
69.68,100.0
69.69,87.0
69.7,87.0
69.71,85.0
69.72,91.0
69.73,83.0
69.74,99.0
69.75,80.0
69.76,75.0
69.77,110.0
69.78,84.0
69.79,91.0
69.8,88.0
69.81,100.0
69.82,90.0
69.83,89.0
69.84,90.0
69.85,92.0
69.86,99.0
69.87,99.0
69.88,91.0
69.89,85.0
69.9,100.0
69.91,72.0
69.92,90.0
69.93,111.0
69.94,102.0
69.95,91.0
69.96,100.0
69.97,87.0
69.98,91.0
69.99,93.0
70.0,93.0
70.01,102.0
70.02,87.0
70.03,95.0
70.04,70.0
70.05,92.0
70.06,74.0
70.07,79.0
70.08,94.0
70.09,93.0
70.1,97.0
70.11,96.0
70.12,99.0
70.13,97.0
70.14,95.0
70.15,77.0
70.16,86.0
70.17,105.0
70.18,86.0
70.19,90.0
70.2,79.0
70.21,74.0
70.22,87.0
70.23,91.0
70.24,85.0
70.25,104.0
70.26,74.0
70.27,101.0
70.28,100.0
70.29,104.0
70.3,83.0
70.31,80.0
70.32,116.0
70.33,77.0
70.34,79.0
70.35,99.0
70.36,96.0
70.37,89.0
70.38,76.0
70.39,94.0
70.4,111.0
70.41,94.0
70.42,91.0
70.43,104.0
70.44,83.0
70.45,82.0
70.46,82.0
70.47,85.0
70.48,83.0
70.49,90.0
70.5,95.0
70.51,89.0
70.52,91.0
70.53,88.0
70.54,85.0
70.55,87.0
70.56,89.0
70.57,87.0
70.58,81.0
70.59,90.0
70.6,73.0
70.61,94.0
70.62,81.0
70.63,99.0
70.64,83.0
70.65,96.0
70.66,81.0
70.67,67.0
70.68,90.0
70.69,86.0
70.7,83.0
70.71,97.0
70.72,78.0
70.73,78.0
70.74,91.0
70.75,67.0
70.76,100.0
70.77,99.0
70.78,97.0
70.79,88.0
70.8,83.0
70.81,83.0
70.82,93.0
70.83,92.0
70.84,78.0
70.85,97.0
70.86,97.0
70.87,81.0
70.88,95.0
70.89,92.0
70.9,95.0
70.91,82.0
70.92,91.0
70.93,65.0
70.94,93.0
70.95,88.0
70.96,82.0
70.97,86.0
70.98,93.0
70.99,86.0
71.0,89.0
71.01,82.0
71.02,85.0
71.03,85.0
71.04,90.0
71.05,88.0
71.06,87.0
71.07,100.0
71.08,91.0
71.09,87.0
71.1,84.0
71.11,98.0
71.12,73.0
71.13,84.0
71.14,84.0
71.15,84.0
71.16,93.0
71.17,98.0
71.18,100.0
71.19,85.0
71.2,78.0
71.21,96.0
71.22,76.0
71.23,68.0
71.24,99.0
71.25,71.0
71.26,83.0
71.27,99.0
71.28,98.0
71.29,81.0
71.3,93.0
71.31,82.0
71.32,87.0
71.33,96.0
71.34,94.0
71.35,89.0
71.36,84.0
71.37,84.0
71.38,87.0
71.39,80.0
71.4,81.0
71.41,88.0
71.42,110.0
71.43,91.0
71.44,98.0
71.45,92.0
71.46,82.0
71.47,102.0
71.48,84.0
71.49,82.0
71.5,81.0
71.51,85.0
71.52,93.0
71.53,84.0
71.54,90.0
71.55,98.0
71.56,69.0
71.57,92.0
71.58,86.0
71.59,82.0
71.6,92.0
71.61,77.0
71.62,77.0
71.63,90.0
71.64,79.0
71.65,91.0
71.66,90.0
71.67,101.0
71.68,72.0
71.69,75.0
71.7,81.0
71.71,82.0
71.72,84.0
71.73,87.0
71.74,82.0
71.75,97.0
71.76,95.0
71.77,96.0
71.78,93.0
71.79,83.0
71.8,86.0
71.81,81.0
71.82,84.0
71.83,74.0
71.84,93.0
71.85,101.0
71.86,91.0
71.87,88.0
71.88,82.0
71.89,88.0
71.9,77.0
71.91,86.0
71.92,90.0
71.93,70.0
71.94,109.0
71.95,83.0
71.96,100.0
71.97,89.0
71.98,85.0
71.99,97.0
72.0,81.0
72.01,84.0
72.02,85.0
72.03,89.0
72.04,68.0
72.05,89.0
72.06,89.0
72.07,109.0
72.08,82.0
72.09,73.0
72.1,81.0
72.11,97.0
72.12,84.0
72.13,91.0
72.14,82.0
72.15,71.0
72.16,84.0
72.17,87.0
72.18,99.0
72.19,85.0
72.2,104.0
72.21,84.0
72.22,78.0
72.23,82.0
72.24,73.0
72.25,83.0
72.26,81.0
72.27,87.0
72.28,81.0
72.29,99.0
72.3,78.0
72.31,87.0
72.32,87.0
72.33,99.0
72.34,97.0
72.35,104.0
72.36,81.0
72.37,111.0
72.38,90.0
72.39,92.0
72.4,84.0
72.41,94.0
72.42,83.0
72.43,90.0
72.44,101.0
72.45,64.0
72.46,81.0
72.47,84.0
72.48,99.0
72.49,87.0
72.5,75.0
72.51,87.0
72.52,71.0
72.53,92.0
72.54,83.0
72.55,64.0
72.56,85.0
72.57,112.0
72.58,78.0
72.59,78.0
72.6,88.0
72.61,81.0
72.62,91.0
72.63,90.0
72.64,88.0
72.65,95.0
72.66,85.0
72.67,93.0
72.68,85.0
72.69,78.0
72.7,94.0
72.71,81.0
72.72,86.0
72.73,84.0
72.74,94.0
72.75,93.0
72.76,79.0
72.77,91.0
72.78,74.0
72.79,93.0
72.8,69.0
72.81,91.0
72.82,87.0
72.83,84.0
72.84,83.0
72.85,93.0
72.86,80.0
72.87,100.0
72.88,86.0
72.89,90.0
72.9,99.0
72.91,92.0
72.92,82.0
72.93,88.0
72.94,86.0
72.95,79.0
72.96,94.0
72.97,86.0
72.98,74.0
72.99,93.0
73.0,90.0
73.01,79.0
73.02,86.0
73.03,80.0
73.04,104.0
73.05,82.0
73.06,74.0
73.07,101.0
73.08,93.0
73.09,90.0
73.1,68.0
73.11,91.0
73.12,76.0
73.13,97.0
73.14,94.0
73.15,74.0
73.16,93.0
73.17,103.0
73.18,103.0
73.19,90.0
73.2,93.0
73.21,93.0
73.22,105.0
73.23,92.0
73.24,86.0
73.25,89.0
73.26,95.0
73.27,92.0
73.28,120.0
73.29,97.0
73.3,66.0
73.31,83.0
73.32,96.0
73.33,90.0
73.34,86.0
73.35,105.0
73.36,103.0
73.37,140.0
73.38,103.0
73.39,133.0
73.4,166.0
73.41,185.0
73.42,199.0
73.43,169.0
73.44,138.0
73.45,124.0
73.46,108.0
73.47,105.0
73.48,108.0
73.49,90.0
73.5,87.0
73.51,88.0
73.52,114.0
73.53,80.0
73.54,102.0
73.55,99.0
73.56,97.0
73.57,98.0
73.58,93.0
73.59,100.0
73.6,121.0
73.61,132.0
73.62,112.0
73.63,139.0
73.64,132.0
73.65,122.0
73.66,93.0
73.67,94.0
73.68,81.0
73.69,101.0
73.7,107.0
73.71,97.0
73.72,92.0
73.73,90.0
73.74,82.0
73.75,82.0
73.76,89.0
73.77,91.0
73.78,85.0
73.79,71.0
73.8,104.0
73.81,78.0
73.82,79.0
73.83,95.0
73.84,80.0
73.85,79.0
73.86,86.0
73.87,84.0
73.88,74.0
73.89,75.0
73.9,82.0
73.91,83.0
73.92,86.0
73.93,91.0
73.94,101.0
73.95,80.0
73.96,103.0
73.97,91.0
73.98,90.0
73.99,100.0
74.0,82.0
74.01,100.0
74.02,78.0
74.03,86.0
74.04,96.0
74.05,77.0
74.06,88.0
74.07,76.0
74.08,92.0
74.09,84.0
74.1,97.0
74.11,99.0
74.12,88.0
74.13,93.0
74.14,88.0
74.15,77.0
74.16,84.0
74.17,72.0
74.18,86.0
74.19,89.0
74.2,102.0
74.21,64.0
74.22,65.0
74.23,76.0
74.24,90.0
74.25,96.0
74.26,83.0
74.27,94.0
74.28,104.0
74.29,76.0
74.3,91.0
74.31,91.0
74.32,77.0
74.33,91.0
74.34,96.0
74.35,81.0
74.36,83.0
74.37,78.0
74.38,105.0
74.39,87.0
74.4,92.0
74.41,90.0
74.42,67.0
74.43,89.0
74.44,87.0
74.45,86.0
74.46,84.0
74.47,88.0
74.48,103.0
74.49,84.0
74.5,81.0
74.51,108.0
74.52,92.0
74.53,88.0
74.54,92.0
74.55,84.0
74.56,73.0
74.57,95.0
74.58,84.0
74.59,72.0
74.6,80.0
74.61,75.0
74.62,89.0
74.63,81.0
74.64,93.0
74.65,87.0
74.66,79.0
74.67,82.0
74.68,77.0
74.69,87.0
74.7,90.0
74.71,65.0
74.72,82.0
74.73,90.0
74.74,83.0
74.75,90.0
74.76,68.0
74.77,77.0
74.78,95.0
74.79,94.0
74.8,77.0
74.81,84.0
74.82,83.0
74.83,79.0
74.84,82.0
74.85,96.0
74.86,76.0
74.87,95.0
74.88,88.0
74.89,67.0
74.9,86.0
74.91,83.0
74.92,80.0
74.93,90.0
74.94,75.0
74.95,66.0
74.96,76.0
74.97,82.0
74.98,73.0
74.99,90.0
75.0,101.0
75.01,88.0
75.02,90.0
75.03,75.0
75.04,93.0
75.05,99.0
75.06,71.0
75.07,90.0
75.08,102.0
75.09,87.0
75.1,94.0
75.11,92.0
75.12,70.0
75.13,78.0
75.14,103.0
75.15,82.0
75.16,88.0
75.17,70.0
75.18,81.0
75.19,92.0
75.2,95.0
75.21,79.0
75.22,86.0
75.23,53.0
75.24,86.0
75.25,92.0
75.26,92.0
75.27,89.0
75.28,80.0
75.29,86.0
75.3,105.0
75.31,93.0
75.32,87.0
75.33,95.0
75.34,81.0
75.35,105.0
75.36,90.0
75.37,85.0
75.38,96.0
75.39,82.0
75.4,92.0
75.41,81.0
75.42,84.0
75.43,97.0
75.44,108.0
75.45,104.0
75.46,107.0
75.47,98.0
75.48,107.0
75.49,116.0
75.5,108.0
75.51,154.0
75.52,147.0
75.53,190.0
75.54,199.0
75.55,182.0
75.56,176.0
75.57,146.0
75.58,127.0
75.59,142.0
75.6,101.0
75.61,115.0
75.62,100.0
75.63,115.0
75.64,90.0
75.65,100.0
75.66,107.0
75.67,92.0
75.68,101.0
75.69,94.0
75.7,105.0
75.71,92.0
75.72,98.0
75.73,114.0
75.74,119.0
75.75,140.0
75.76,146.0
75.77,140.0
75.78,129.0
75.79,120.0
75.8,126.0
75.81,104.0
75.82,113.0
75.83,107.0
75.84,92.0
75.85,92.0
75.86,95.0
75.87,95.0
75.88,88.0
75.89,88.0
75.9,81.0
75.91,83.0
75.92,90.0
75.93,86.0
75.94,91.0
75.95,81.0
75.96,79.0
75.97,92.0
75.98,76.0
75.99,81.0
76.0,93.0
76.01,91.0
76.02,119.0
76.03,95.0
76.04,94.0
76.05,99.0
76.06,88.0
76.07,81.0
76.08,95.0
76.09,98.0
76.1,89.0
76.11,79.0
76.12,88.0
76.13,87.0
76.14,86.0
76.15,77.0
76.16,98.0
76.17,88.0
76.18,84.0
76.19,89.0
76.2,76.0
76.21,84.0
76.22,79.0
76.23,88.0
76.24,78.0
76.25,87.0
76.26,70.0
76.27,104.0
76.28,72.0
76.29,90.0
76.3,82.0
76.31,85.0
76.32,80.0
76.33,97.0
76.34,101.0
76.35,89.0
76.36,87.0
76.37,94.0
76.38,80.0
76.39,73.0
76.4,82.0
76.41,71.0
76.42,94.0
76.43,77.0
76.44,87.0
76.45,91.0
76.46,66.0
76.47,89.0
76.48,79.0
76.49,89.0
76.5,81.0
76.51,80.0
76.52,76.0
76.53,91.0
76.54,76.0
76.55,102.0
76.56,98.0
76.57,89.0
76.58,89.0
76.59,113.0
76.6,96.0
76.61,94.0
76.62,88.0
76.63,100.0
76.64,65.0
76.65,76.0
76.66,106.0
76.67,89.0
76.68,93.0
76.69,86.0
76.7,90.0
76.71,87.0
76.72,97.0
76.73,86.0
76.74,102.0
76.75,64.0
76.76,99.0
76.77,100.0
76.78,98.0
76.79,90.0
76.8,96.0
76.81,91.0
76.82,97.0
76.83,103.0
76.84,80.0
76.85,78.0
76.86,93.0
76.87,92.0
76.88,82.0
76.89,96.0
76.9,80.0
76.91,95.0
76.92,94.0
76.93,100.0
76.94,89.0
76.95,95.0
76.96,75.0
76.97,91.0
76.98,79.0
76.99,92.0
77.0,83.0
77.01,90.0
77.02,104.0
77.03,90.0
77.04,100.0
77.05,84.0
77.06,96.0
77.07,87.0
77.08,84.0
77.09,84.0
77.1,90.0
77.11,88.0
77.12,90.0
77.13,97.0
77.14,88.0
77.15,87.0
77.16,92.0
77.17,86.0
77.18,83.0
77.19,88.0
77.2,75.0
77.21,85.0
77.22,101.0
77.23,93.0
77.24,83.0
77.25,102.0
77.26,74.0
77.27,81.0
77.28,83.0
77.29,86.0
77.3,90.0
77.31,102.0
77.32,107.0
77.33,88.0
77.34,81.0
77.35,84.0
77.36,80.0
77.37,89.0
77.38,81.0
77.39,90.0
77.4,89.0
77.41,94.0
77.42,87.0
77.43,75.0
77.44,84.0
77.45,81.0
77.46,83.0
77.47,98.0
77.48,95.0
77.49,90.0
77.5,76.0
77.51,73.0
77.52,116.0
77.53,85.0
77.54,93.0
77.55,99.0
77.56,97.0
77.57,83.0
77.58,105.0
77.59,119.0
77.6,132.0
77.61,129.0
77.62,137.0
77.63,144.0
77.64,154.0
77.65,164.0
77.66,145.0
77.67,121.0
77.68,119.0
77.69,91.0
77.7,107.0
77.71,99.0
77.72,93.0
77.73,72.0
77.74,105.0
77.75,97.0
77.76,98.0
77.77,73.0
77.78,93.0
77.79,91.0
77.8,93.0
77.81,84.0
77.82,88.0
77.83,89.0
77.84,118.0
77.85,103.0
77.86,106.0
77.87,110.0
77.88,128.0
77.89,114.0
77.9,78.0
77.91,106.0
77.92,98.0
77.93,89.0
77.94,93.0
77.95,87.0
77.96,90.0
77.97,84.0
77.98,82.0
77.99,85.0
78.0,106.0
78.01,74.0
78.02,97.0
78.03,99.0
78.04,72.0
78.05,86.0
78.06,88.0
78.07,74.0
78.08,100.0
78.09,98.0
78.1,96.0
78.11,86.0
78.12,79.0
78.13,79.0
78.14,97.0
78.15,88.0
78.16,85.0
78.17,71.0
78.18,85.0
78.19,84.0
78.2,93.0
78.21,83.0
78.22,82.0
78.23,80.0
78.24,86.0
78.25,77.0
78.26,103.0
78.27,85.0
78.28,95.0
78.29,103.0
78.3,77.0
78.31,86.0
78.32,86.0
78.33,105.0
78.34,83.0
78.35,77.0
78.36,75.0
78.37,87.0
78.38,87.0
78.39,89.0
78.4,69.0
78.41,85.0
78.42,73.0
78.43,80.0
78.44,89.0
78.45,88.0
78.46,88.0
78.47,101.0
78.48,88.0
78.49,96.0
78.5,84.0
78.51,74.0
78.52,108.0
78.53,82.0
78.54,85.0
78.55,97.0
78.56,88.0
78.57,79.0
78.58,92.0
78.59,95.0
78.6,81.0
78.61,96.0
78.62,88.0
78.63,84.0
78.64,80.0
78.65,93.0
78.66,98.0
78.67,93.0
78.68,91.0
78.69,91.0
78.7,98.0
78.71,98.0
78.72,95.0
78.73,108.0
78.74,110.0
78.75,85.0
78.76,95.0
78.77,96.0
78.78,80.0
78.79,82.0
78.8,79.0
78.81,81.0
78.82,87.0
78.83,108.0
78.84,97.0
78.85,98.0
78.86,77.0
78.87,98.0
78.88,80.0
78.89,83.0
78.9,91.0
78.91,78.0
78.92,103.0
78.93,88.0
78.94,91.0
78.95,94.0
78.96,78.0
78.97,93.0
78.98,68.0
78.99,85.0
79.0,88.0
79.01,86.0
79.02,105.0
79.03,86.0
79.04,82.0
79.05,80.0
79.06,81.0
79.07,82.0
79.08,102.0
79.09,95.0
79.1,83.0
79.11,96.0
79.12,105.0
79.13,87.0
79.14,105.0
79.15,82.0
79.16,83.0
79.17,96.0
79.18,83.0
79.19,88.0
79.2,74.0
79.21,92.0
79.22,85.0
79.23,77.0
79.24,75.0
79.25,80.0
79.26,85.0
79.27,75.0
79.28,85.0
79.29,85.0
79.3,87.0
79.31,86.0
79.32,90.0
79.33,74.0
79.34,96.0
79.35,82.0
79.36,88.0
79.37,79.0
79.38,91.0
79.39,80.0
79.4,85.0
79.41,79.0
79.42,101.0
79.43,85.0
79.44,91.0
79.45,94.0
79.46,90.0
79.47,92.0
79.48,86.0
79.49,85.0
79.5,87.0
79.51,88.0
79.52,80.0
79.53,77.0
79.54,89.0
79.55,94.0
79.56,88.0
79.57,75.0
79.58,78.0
79.59,80.0
79.6,75.0
79.61,76.0
79.62,94.0
79.63,81.0
79.64,84.0
79.65,77.0
79.66,96.0
79.67,82.0
79.68,95.0
79.69,76.0
79.7,87.0
79.71,87.0
79.72,89.0
79.73,76.0
79.74,78.0
79.75,89.0
79.76,96.0
79.77,71.0
79.78,96.0
79.79,89.0
79.8,92.0
79.81,78.0
79.82,93.0
79.83,88.0
79.84,96.0
79.85,77.0
79.86,93.0
79.87,110.0
79.88,92.0
79.89,76.0
79.9,88.0
79.91,85.0
79.92,76.0
79.93,79.0
79.94,78.0
79.95,78.0
79.96,85.0
79.97,91.0
79.98,86.0
79.99,75.0
80.0,101.0
80.01,94.0
80.02,74.0
80.03,79.0
80.04,76.0
80.05,95.0
80.06,90.0
80.07,82.0
80.08,81.0
80.09,75.0
80.1,78.0
80.11,78.0
80.12,90.0
80.13,83.0
80.14,92.0
80.15,100.0
80.16,82.0
80.17,89.0
80.18,90.0
80.19,89.0
80.2,75.0
80.21,79.0
80.22,89.0
80.23,83.0
80.24,79.0
80.25,81.0
80.26,93.0
80.27,83.0
80.28,70.0
80.29,77.0
80.3,94.0
80.31,80.0
80.32,86.0
80.33,82.0
80.34,85.0
80.35,81.0
80.36,94.0
80.37,62.0
80.38,87.0
80.39,75.0
80.4,78.0
80.41,86.0
80.42,84.0
80.43,79.0
80.44,83.0
80.45,87.0
80.46,98.0
80.47,96.0
80.48,81.0
80.49,85.0
80.5,88.0
80.51,66.0
80.52,108.0
80.53,83.0
80.54,88.0
80.55,78.0
80.56,85.0
80.57,80.0
80.58,89.0
80.59,90.0
80.6,95.0
80.61,84.0
80.62,83.0
80.63,88.0
80.64,75.0
80.65,73.0
80.66,82.0
80.67,93.0
80.68,97.0
80.69,88.0
80.7,80.0
80.71,91.0
80.72,71.0
80.73,89.0
80.74,84.0
80.75,85.0
80.76,88.0
80.77,83.0
80.78,83.0
80.79,82.0
80.8,85.0
80.81,93.0
80.82,85.0
80.83,84.0
80.84,82.0
80.85,64.0
80.86,87.0
80.87,82.0
80.88,89.0
80.89,78.0
80.9,86.0
80.91,76.0
80.92,74.0
80.93,96.0
80.94,76.0
80.95,79.0
80.96,67.0
80.97,89.0
80.98,92.0
80.99,94.0
81.0,92.0
81.01,91.0
81.02,88.0
81.03,95.0
81.04,87.0
81.05,83.0
81.06,102.0
81.07,84.0
81.08,92.0
81.09,89.0
81.1,76.0
81.11,85.0
81.12,85.0
81.13,77.0
81.14,83.0
81.15,87.0
81.16,83.0
81.17,77.0
81.18,73.0
81.19,87.0
81.2,88.0
81.21,84.0
81.22,98.0
81.23,87.0
81.24,98.0
81.25,69.0
81.26,91.0
81.27,77.0
81.28,76.0
81.29,80.0
81.3,74.0
81.31,90.0
81.32,92.0
81.33,76.0
81.34,87.0
81.35,76.0
81.36,102.0
81.37,94.0
81.38,88.0
81.39,81.0
81.4,73.0
81.41,82.0
81.42,87.0
81.43,95.0
81.44,76.0
81.45,98.0
81.46,61.0
81.47,78.0
81.48,88.0
81.49,96.0
81.5,88.0
81.51,90.0
81.52,72.0
81.53,86.0
81.54,84.0
81.55,78.0
81.56,75.0
81.57,81.0
81.58,85.0
81.59,74.0
81.6,89.0
81.61,74.0
81.62,79.0
81.63,96.0
81.64,90.0
81.65,97.0
81.66,75.0
81.67,93.0
81.68,88.0
81.69,86.0
81.7,85.0
81.71,79.0
81.72,81.0
81.73,82.0
81.74,94.0
81.75,69.0
81.76,94.0
81.77,73.0
81.78,81.0
81.79,86.0
81.8,78.0
81.81,75.0
81.82,89.0
81.83,87.0
81.84,77.0
81.85,70.0
81.86,101.0
81.87,82.0
81.88,88.0
81.89,83.0
81.9,74.0
81.91,74.0
81.92,79.0
81.93,79.0
81.94,68.0
81.95,68.0
81.96,71.0
81.97,87.0
81.98,76.0
81.99,81.0
82.0,89.0
82.01,80.0
82.02,97.0
82.03,84.0
82.04,91.0
82.05,107.0
82.06,91.0
82.07,100.0
82.08,76.0
82.09,85.0
82.1,79.0
82.11,72.0
82.12,75.0
82.13,95.0
82.14,87.0
82.15,85.0
82.16,97.0
82.17,69.0
82.18,82.0
82.19,84.0
82.2,81.0
82.21,71.0
82.22,70.0
82.23,89.0
82.24,100.0
82.25,79.0
82.26,86.0
82.27,84.0
82.28,81.0
82.29,60.0
82.3,96.0
82.31,76.0
82.32,87.0
82.33,93.0
82.34,84.0
82.35,80.0
82.36,81.0
82.37,102.0
82.38,97.0
82.39,86.0
82.4,80.0
82.41,93.0
82.42,92.0
82.43,78.0
82.44,101.0
82.45,97.0
82.46,94.0
82.47,87.0
82.48,103.0
82.49,91.0
82.5,82.0
82.51,84.0
82.52,77.0
82.53,101.0
82.54,97.0
82.55,85.0
82.56,82.0
82.57,85.0
82.58,90.0
82.59,78.0
82.6,84.0
82.61,79.0
82.62,97.0
82.63,91.0
82.64,70.0
82.65,100.0
82.66,81.0
82.67,87.0
82.68,70.0
82.69,92.0
82.7,88.0
82.71,92.0
82.72,77.0
82.73,108.0
82.74,73.0
82.75,84.0
82.76,88.0
82.77,89.0
82.78,74.0
82.79,92.0
82.8,95.0
82.81,90.0
82.82,107.0
82.83,105.0
82.84,86.0
82.85,100.0
82.86,97.0
82.87,85.0
82.88,99.0
82.89,92.0
82.9,82.0
82.91,94.0
82.92,94.0
82.93,92.0
82.94,79.0
82.95,83.0
82.96,80.0
82.97,79.0
82.98,98.0
82.99,89.0
83.0,87.0
83.01,91.0
83.02,85.0
83.03,97.0
83.04,89.0
83.05,85.0
83.06,88.0
83.07,100.0
83.08,84.0
83.09,86.0
83.1,96.0
83.11,98.0
83.12,108.0
83.13,75.0
83.14,92.0
83.15,89.0
83.16,88.0
83.17,91.0
83.18,73.0
83.19,96.0
83.2,94.0
83.21,86.0
83.22,78.0
83.23,72.0
83.24,84.0
83.25,85.0
83.26,78.0
83.27,81.0
83.28,92.0
83.29,85.0
83.3,84.0
83.31,89.0
83.32,86.0
83.33,69.0
83.34,88.0
83.35,92.0
83.36,116.0
83.37,102.0
83.38,98.0
83.39,70.0
83.4,83.0
83.41,82.0
83.42,92.0
83.43,90.0
83.44,83.0
83.45,86.0
83.46,85.0
83.47,81.0
83.48,89.0
83.49,99.0
83.5,108.0
83.51,79.0
83.52,81.0
83.53,91.0
83.54,96.0
83.55,84.0
83.56,89.0
83.57,104.0
83.58,88.0
83.59,92.0
83.6,78.0
83.61,80.0
83.62,96.0
83.63,86.0
83.64,86.0
83.65,78.0
83.66,74.0
83.67,77.0
83.68,78.0
83.69,96.0
83.7,79.0
83.71,82.0
83.72,92.0
83.73,104.0
83.74,83.0
83.75,100.0
83.76,92.0
83.77,97.0
83.78,87.0
83.79,85.0
83.8,86.0
83.81,96.0
83.82,87.0
83.83,73.0
83.84,77.0
83.85,85.0
83.86,76.0
83.87,81.0
83.88,75.0
83.89,99.0
83.9,84.0
83.91,94.0
83.92,83.0
83.93,88.0
83.94,79.0
83.95,91.0
83.96,89.0
83.97,105.0
83.98,88.0
83.99,83.0
84.0,88.0
84.01,75.0
84.02,82.0
84.03,96.0
84.04,87.0
84.05,96.0
84.06,80.0
84.07,95.0
84.08,78.0
84.09,87.0
84.1,78.0
84.11,84.0
84.12,81.0
84.13,66.0
84.14,95.0
84.15,85.0
84.16,86.0
84.17,81.0
84.18,78.0
84.19,87.0
84.2,71.0
84.21,82.0
84.22,75.0
84.23,98.0
84.24,107.0
84.25,85.0
84.26,86.0
84.27,90.0
84.28,99.0
84.29,100.0
84.3,88.0
84.31,85.0
84.32,90.0
84.33,75.0
84.34,73.0
84.35,85.0
84.36,102.0
84.37,84.0
84.38,92.0
84.39,78.0
84.4,88.0
84.41,68.0
84.42,90.0
84.43,91.0
84.44,70.0
84.45,84.0
84.46,75.0
84.47,83.0
84.48,82.0
84.49,97.0
84.5,77.0
84.51,97.0
84.52,86.0
84.53,89.0
84.54,76.0
84.55,88.0
84.56,90.0
84.57,89.0
84.58,78.0
84.59,88.0
84.6,84.0
84.61,75.0
84.62,81.0
84.63,82.0
84.64,94.0
84.65,74.0
84.66,84.0
84.67,73.0
84.68,67.0
84.69,71.0
84.7,91.0
84.71,92.0
84.72,95.0
84.73,94.0
84.74,100.0
84.75,88.0
84.76,83.0
84.77,75.0
84.78,75.0
84.79,80.0
84.8,102.0
84.81,68.0
84.82,81.0
84.83,71.0
84.84,89.0
84.85,80.0
84.86,90.0
84.87,76.0
84.88,96.0
84.89,82.0
84.9,74.0
84.91,83.0
84.92,92.0
84.93,75.0
84.94,96.0
84.95,96.0
84.96,82.0
84.97,81.0
84.98,70.0
84.99,84.0
85.0,85.0
85.01,91.0
85.02,86.0
85.03,85.0
85.04,82.0
85.05,81.0
85.06,78.0
85.07,93.0
85.08,82.0
85.09,92.0
85.1,86.0
85.11,87.0
85.12,84.0
85.13,85.0
85.14,75.0
85.15,78.0
85.16,71.0
85.17,88.0
85.18,81.0
85.19,74.0
85.2,95.0
85.21,87.0
85.22,89.0
85.23,84.0
85.24,82.0
85.25,93.0
85.26,89.0
85.27,89.0
85.28,82.0
85.29,101.0
85.3,74.0
85.31,68.0
85.32,84.0
85.33,81.0
85.34,79.0
85.35,87.0
85.36,68.0
85.37,86.0
85.38,90.0
85.39,85.0
85.4,83.0
85.41,102.0
85.42,87.0
85.43,85.0
85.44,80.0
85.45,100.0
85.46,89.0
85.47,83.0
85.48,91.0
85.49,73.0
85.5,82.0
85.51,65.0
85.52,70.0
85.53,79.0
85.54,72.0
85.55,84.0
85.56,75.0
85.57,83.0
85.58,75.0
85.59,75.0
85.6,90.0
85.61,83.0
85.62,82.0
85.63,72.0
85.64,80.0
85.65,85.0
85.66,86.0
85.67,68.0
85.68,74.0
85.69,84.0
85.7,81.0
85.71,108.0
85.72,88.0
85.73,80.0
85.74,67.0
85.75,80.0
85.76,78.0
85.77,79.0
85.78,80.0
85.79,88.0
85.8,84.0
85.81,77.0
85.82,98.0
85.83,86.0
85.84,82.0
85.85,86.0
85.86,115.0
85.87,93.0
85.88,90.0
85.89,78.0
85.9,78.0
85.91,98.0
85.92,90.0
85.93,83.0
85.94,122.0
85.95,98.0
85.96,79.0
85.97,95.0
85.98,78.0
85.99,85.0
86.0,61.0
86.01,80.0
86.02,103.0
86.03,101.0
86.04,83.0
86.05,77.0
86.06,80.0
86.07,91.0
86.08,81.0
86.09,94.0
86.1,88.0
86.11,87.0
86.12,92.0
86.13,70.0
86.14,75.0
86.15,90.0
86.16,100.0
86.17,84.0
86.18,86.0
86.19,85.0
86.2,101.0
86.21,98.0
86.22,91.0
86.23,98.0
86.24,69.0
86.25,84.0
86.26,78.0
86.27,88.0
86.28,88.0
86.29,81.0
86.3,81.0
86.31,97.0
86.32,83.0
86.33,75.0
86.34,68.0
86.35,68.0
86.36,85.0
86.37,96.0
86.38,95.0
86.39,91.0
86.4,86.0
86.41,78.0
86.42,90.0
86.43,94.0
86.44,81.0
86.45,96.0
86.46,94.0
86.47,73.0
86.48,91.0
86.49,76.0
86.5,84.0
86.51,102.0
86.52,78.0
86.53,108.0
86.54,75.0
86.55,80.0
86.56,84.0
86.57,82.0
86.58,82.0
86.59,88.0
86.6,85.0
86.61,73.0
86.62,81.0
86.63,86.0
86.64,67.0
86.65,77.0
86.66,91.0
86.67,78.0
86.68,86.0
86.69,86.0
86.7,88.0
86.71,79.0
86.72,78.0
86.73,92.0
86.74,73.0
86.75,75.0
86.76,82.0
86.77,100.0
86.78,96.0
86.79,79.0
86.8,83.0
86.81,79.0
86.82,82.0
86.83,80.0
86.84,88.0
86.85,80.0
86.86,91.0
86.87,97.0
86.88,87.0
86.89,71.0
86.9,85.0
86.91,89.0
86.92,88.0
86.93,91.0
86.94,67.0
86.95,88.0
86.96,74.0
86.97,64.0
86.98,91.0
86.99,92.0
87.0,97.0
87.01,78.0
87.02,82.0
87.03,95.0
87.04,82.0
87.05,89.0
87.06,63.0
87.07,99.0
87.08,82.0
87.09,78.0
87.1,99.0
87.11,83.0
87.12,76.0
87.13,84.0
87.14,92.0
87.15,90.0
87.16,78.0
87.17,73.0
87.18,92.0
87.19,79.0
87.2,89.0
87.21,89.0
87.22,99.0
87.23,77.0
87.24,84.0
87.25,79.0
87.26,82.0
87.27,86.0
87.28,83.0
87.29,83.0
87.3,81.0
87.31,68.0
87.32,60.0
87.33,72.0
87.34,83.0
87.35,83.0
87.36,82.0
87.37,93.0
87.38,64.0
87.39,79.0
87.4,78.0
87.41,86.0
87.42,86.0
87.43,83.0
87.44,83.0
87.45,76.0
87.46,88.0
87.47,93.0
87.48,100.0
87.49,90.0
87.5,84.0
87.51,86.0
87.52,71.0
87.53,76.0
87.54,85.0
87.55,94.0
87.56,88.0
87.57,81.0
87.58,72.0
87.59,97.0
87.6,84.0
87.61,89.0
87.62,103.0
87.63,86.0
87.64,90.0
87.65,86.0
87.66,91.0
87.67,77.0
87.68,90.0
87.69,71.0
87.7,91.0
87.71,82.0
87.72,97.0
87.73,94.0
87.74,79.0
87.75,87.0
87.76,78.0
87.77,79.0
87.78,87.0
87.79,90.0
87.8,95.0
87.81,78.0
87.82,87.0
87.83,85.0
87.84,75.0
87.85,99.0
87.86,89.0
87.87,85.0
87.88,81.0
87.89,88.0
87.9,89.0
87.91,77.0
87.92,64.0
87.93,91.0
87.94,65.0
87.95,101.0
87.96,77.0
87.97,82.0
87.98,93.0
87.99,90.0
88.0,88.0
88.01,81.0
88.02,92.0
88.03,70.0
88.04,92.0
88.05,80.0
88.06,85.0
88.07,77.0
88.08,87.0
88.09,90.0
88.1,81.0
88.11,73.0
88.12,76.0
88.13,79.0
88.14,101.0
88.15,85.0
88.16,61.0
88.17,82.0
88.18,86.0
88.19,85.0
88.2,96.0
88.21,92.0
88.22,85.0
88.23,83.0
88.24,74.0
88.25,81.0
88.26,78.0
88.27,80.0
88.28,75.0
88.29,93.0
88.3,87.0
88.31,77.0
88.32,75.0
88.33,85.0
88.34,91.0
88.35,89.0
88.36,74.0
88.37,84.0
88.38,88.0
88.39,81.0
88.4,84.0
88.41,94.0
88.42,79.0
88.43,75.0
88.44,92.0
88.45,77.0
88.46,92.0
88.47,80.0
88.48,89.0
88.49,87.0
88.5,83.0
88.51,95.0
88.52,87.0
88.53,87.0
88.54,83.0
88.55,92.0
88.56,97.0
88.57,89.0
88.58,79.0
88.59,79.0
88.6,90.0
88.61,75.0
88.62,71.0
88.63,78.0
88.64,90.0
88.65,78.0
88.66,80.0
88.67,63.0
88.68,77.0
88.69,75.0
88.7,86.0
88.71,87.0
88.72,63.0
88.73,91.0
88.74,88.0
88.75,97.0
88.76,86.0
88.77,84.0
88.78,70.0
88.79,83.0
88.8,80.0
88.81,69.0
88.82,85.0
88.83,85.0
88.84,90.0
88.85,98.0
88.86,94.0
88.87,81.0
88.88,65.0
88.89,83.0
88.9,76.0
88.91,81.0
88.92,72.0
88.93,72.0
88.94,88.0
88.95,83.0
88.96,80.0
88.97,86.0
88.98,85.0
88.99,85.0
89.0,95.0
89.01,70.0
89.02,89.0
89.03,76.0
89.04,72.0
89.05,76.0
89.06,66.0
89.07,90.0
89.08,87.0
89.09,79.0
89.1,88.0
89.11,63.0
89.12,71.0
89.13,89.0
89.14,74.0
89.15,75.0
89.16,80.0
89.17,80.0
89.18,89.0
89.19,75.0
89.2,95.0
89.21,75.0
89.22,94.0
89.23,93.0
89.24,75.0
89.25,85.0
89.26,74.0
89.27,98.0
89.28,77.0
89.29,74.0
89.3,88.0
89.31,86.0
89.32,92.0
89.33,75.0
89.34,76.0
89.35,78.0
89.36,92.0
89.37,84.0
89.38,73.0
89.39,81.0
89.4,86.0
89.41,76.0
89.42,88.0
89.43,73.0
89.44,88.0
89.45,85.0
89.46,93.0
89.47,82.0
89.48,76.0
89.49,74.0
89.5,86.0
89.51,76.0
89.52,72.0
89.53,93.0
89.54,75.0
89.55,94.0
89.56,65.0
89.57,76.0
89.58,72.0
89.59,83.0
89.6,80.0
89.61,68.0
89.62,75.0
89.63,88.0
89.64,99.0
89.65,84.0
89.66,67.0
89.67,67.0
89.68,78.0
89.69,91.0
89.7,85.0
89.71,89.0
89.72,86.0
89.73,84.0
89.74,83.0
89.75,79.0
89.76,69.0
89.77,69.0
89.78,89.0
89.79,75.0
89.8,84.0
89.81,100.0
89.82,79.0
89.83,89.0
89.84,96.0
89.85,78.0
89.86,73.0
89.87,76.0
89.88,84.0
89.89,100.0
89.9,87.0
89.91,93.0
89.92,83.0
89.93,88.0
89.94,79.0
89.95,88.0
89.96,77.0
89.97,93.0
89.98,94.0
89.99,71.0
90.0,85.0
