angle,intensity
5.0,78.0
5.01,73.0
5.02,81.0
5.03,56.0
5.04,70.0
5.05,75.0
5.06,57.0
5.07,75.0
5.08,64.0
5.09,74.0
5.1,71.0
5.11,75.0
5.12,68.0
5.13,68.0
5.14,79.0
5.15,77.0
5.16,78.0
5.17,83.0
5.18,57.0
5.19,66.0
5.2,66.0
5.21,67.0
5.22,76.0
5.23,69.0
5.24,72.0
5.25,63.0
5.26,74.0
5.27,55.0
5.28,77.0
5.29,86.0
5.3,76.0
5.31,82.0
5.32,73.0
5.33,66.0
5.34,65.0
5.35,71.0
5.36,88.0
5.37,48.0
5.38,71.0
5.39,72.0
5.4,74.0
5.41,77.0
5.42,56.0
5.43,51.0
5.44,59.0
5.45,78.0
5.46,83.0
5.47,68.0
5.48,66.0
5.49,78.0
5.5,63.0
5.51,65.0
5.52,90.0
5.53,83.0
5.54,67.0
5.55,73.0
5.56,63.0
5.57,59.0
5.58,92.0
5.59,63.0
5.6,72.0
5.61,74.0
5.62,77.0
5.63,79.0
5.64,75.0
5.65,61.0
5.66,81.0
5.67,70.0
5.68,62.0
5.69,81.0
5.7,79.0
5.71,57.0
5.72,76.0
5.73,74.0
5.74,67.0
5.75,83.0
5.76,92.0
5.77,66.0
5.78,75.0
5.79,67.0
5.8,52.0
5.81,80.0
5.82,84.0
5.83,60.0
5.84,79.0
5.85,81.0
5.86,62.0
5.87,56.0
5.88,76.0
5.89,89.0
5.9,76.0
5.91,72.0
5.92,84.0
5.93,83.0
5.94,77.0
5.95,65.0
5.96,75.0
5.97,67.0
5.98,70.0
5.99,83.0
6.0,69.0
6.01,83.0
6.02,69.0
6.03,69.0
6.04,76.0
6.05,71.0
6.06,91.0
6.07,65.0
6.08,72.0
6.09,72.0
6.1,65.0
6.11,70.0
6.12,77.0
6.13,74.0
6.14,69.0
6.15,87.0
6.16,87.0
6.17,73.0
6.18,68.0
6.19,81.0
6.2,80.0
6.21,60.0
6.22,59.0
6.23,82.0
6.24,72.0
6.25,77.0
6.26,70.0
6.27,61.0
6.28,73.0
6.29,71.0
6.3,63.0
6.31,87.0
6.32,86.0
6.33,61.0
6.34,74.0
6.35,84.0
6.36,64.0
6.37,64.0
6.38,71.0
6.39,67.0
6.4,71.0
6.41,88.0
6.42,82.0
6.43,89.0
6.44,81.0
6.45,94.0
6.46,61.0
6.47,82.0
6.48,64.0
6.49,88.0
6.5,67.0
6.51,76.0
6.52,75.0
6.53,62.0
6.54,85.0
6.55,66.0
6.56,73.0
6.57,82.0
6.58,65.0
6.59,76.0
6.6,85.0
6.61,70.0
6.62,79.0
6.63,65.0
6.64,87.0
6.65,83.0
6.66,75.0
6.67,83.0
6.68,72.0
6.69,75.0
6.7,77.0
6.71,85.0
6.72,60.0
6.73,76.0
6.74,59.0
6.75,88.0
6.76,76.0
6.77,69.0
6.78,79.0
6.79,79.0
6.8,72.0
6.81,74.0
6.82,74.0
6.83,61.0
6.84,79.0
6.85,71.0
6.86,56.0
6.87,84.0
6.88,57.0
6.89,69.0
6.9,76.0
6.91,86.0
6.92,84.0
6.93,78.0
6.94,86.0
6.95,70.0
6.96,62.0
6.97,81.0
6.98,77.0
6.99,73.0
7.0,80.0
7.01,75.0
7.02,75.0
7.03,71.0
7.04,55.0
7.05,77.0
7.06,79.0
7.07,77.0
7.08,68.0
7.09,82.0
7.1,65.0
7.11,65.0
7.12,78.0
7.13,85.0
7.14,68.0
7.15,72.0
7.16,72.0
7.17,73.0
7.18,90.0
7.19,76.0
7.2,70.0
7.21,65.0
7.22,58.0
7.23,82.0
7.24,74.0
7.25,63.0
7.26,82.0
7.27,73.0
7.28,66.0
7.29,70.0
7.3,85.0
7.31,77.0
7.32,58.0
7.33,69.0
7.34,77.0
7.35,64.0
7.36,77.0
7.37,81.0
7.38,93.0
7.39,89.0
7.4,85.0
7.41,72.0
7.42,73.0
7.43,55.0
7.44,83.0
7.45,71.0
7.46,69.0
7.47,71.0
7.48,66.0
7.49,62.0
7.5,69.0
7.51,65.0
7.52,66.0
7.53,76.0
7.54,68.0
7.55,70.0
7.56,71.0
7.57,60.0
7.58,82.0
7.59,55.0
7.6,77.0
7.61,57.0
7.62,87.0
7.63,77.0
7.64,78.0
7.65,73.0
7.66,67.0
7.67,73.0
7.68,85.0
7.69,72.0
7.7,69.0
7.71,66.0
7.72,71.0
7.73,62.0
7.74,74.0
7.75,77.0
7.76,57.0
7.77,66.0
7.78,72.0
7.79,83.0
7.8,86.0
7.81,64.0
7.82,67.0
7.83,73.0
7.84,86.0
7.85,68.0
7.86,66.0
7.87,65.0
7.88,69.0
7.89,75.0
7.9,87.0
7.91,68.0
7.92,62.0
7.93,77.0
7.94,79.0
7.95,68.0
7.96,84.0
7.97,87.0
7.98,79.0
7.99,82.0
8.0,70.0
8.01,81.0
8.02,77.0
8.03,78.0
8.04,85.0
8.05,80.0
8.06,75.0
8.07,81.0
8.08,81.0
8.09,79.0
8.1,90.0
8.11,70.0
8.12,69.0
8.13,64.0
8.14,73.0
8.15,78.0
8.16,78.0
8.17,70.0
8.18,71.0
8.19,60.0
8.2,72.0
8.21,69.0
8.22,71.0
8.23,80.0
8.24,80.0
8.25,86.0
8.26,77.0
8.27,64.0
8.28,80.0
8.29,64.0
8.3,62.0
8.31,61.0
8.32,69.0
8.33,87.0
8.34,90.0
8.35,82.0
8.36,87.0
8.37,86.0
8.38,62.0
8.39,78.0
8.4,76.0
8.41,91.0
8.42,66.0
8.43,74.0
8.44,59.0
8.45,87.0
8.46,85.0
8.47,63.0
8.48,98.0
8.49,88.0
8.5,74.0
8.51,77.0
8.52,75.0
8.53,76.0
8.54,76.0
8.55,66.0
8.56,71.0
8.57,88.0
8.58,69.0
8.59,81.0
8.6,77.0
8.61,89.0
8.62,67.0
8.63,84.0
8.64,70.0
8.65,67.0
8.66,90.0
8.67,74.0
8.68,70.0
8.69,75.0
8.7,77.0
8.71,71.0
8.72,77.0
8.73,73.0
8.74,77.0
8.75,61.0
8.76,72.0
8.77,74.0
8.78,69.0
8.79,78.0
8.8,79.0
8.81,78.0
8.82,70.0
8.83,58.0
8.84,69.0
8.85,70.0
8.86,81.0
8.87,79.0
8.88,83.0
8.89,71.0
8.9,78.0
8.91,96.0
8.92,77.0
8.93,70.0
8.94,87.0
8.95,79.0
8.96,70.0
8.97,64.0
8.98,64.0
8.99,77.0
9.0,79.0
9.01,83.0
9.02,76.0
9.03,84.0
9.04,94.0
9.05,60.0
9.06,97.0
9.07,68.0
9.08,77.0
9.09,88.0
9.1,66.0
9.11,82.0
9.12,87.0
9.13,91.0
9.14,72.0
9.15,82.0
9.16,84.0
9.17,89.0
9.18,82.0
9.19,86.0
9.2,65.0
9.21,70.0
9.22,78.0
9.23,72.0
9.24,102.0
9.25,95.0
9.26,88.0
9.27,88.0
9.28,79.0
9.29,77.0
9.3,72.0
9.31,94.0
9.32,78.0
9.33,83.0
9.34,82.0
9.35,91.0
9.36,95.0
9.37,70.0
9.38,71.0
9.39,84.0
9.4,60.0
9.41,91.0
9.42,95.0
9.43,91.0
9.44,104.0
9.45,82.0
9.46,91.0
9.47,86.0
9.48,91.0
9.49,87.0
9.5,81.0
9.51,93.0
9.52,68.0
9.53,74.0
9.54,89.0
9.55,78.0
9.56,66.0
9.57,74.0
9.58,77.0
9.59,76.0
9.6,83.0
9.61,84.0
9.62,89.0
9.63,89.0
9.64,86.0
9.65,89.0
9.66,97.0
9.67,79.0
9.68,86.0
9.69,67.0
9.7,86.0
9.71,86.0
9.72,79.0
9.73,96.0
9.74,81.0
9.75,83.0
9.76,86.0
9.77,70.0
9.78,104.0
9.79,101.0
9.8,90.0
9.81,117.0
9.82,78.0
9.83,81.0
9.84,91.0
9.85,68.0
9.86,100.0
9.87,88.0
9.88,75.0
9.89,87.0
9.9,96.0
9.91,87.0
9.92,74.0
9.93,84.0
9.94,103.0
9.95,76.0
9.96,94.0
9.97,82.0
9.98,80.0
9.99,85.0
10.0,90.0
10.01,89.0
10.02,83.0
10.03,80.0
10.04,90.0
10.05,91.0
10.06,92.0
10.07,91.0
10.08,82.0
10.09,91.0
10.1,84.0
10.11,99.0
10.12,93.0
10.13,94.0
10.14,96.0
10.15,95.0
10.16,95.0
10.17,79.0
10.18,96.0
10.19,108.0
10.2,83.0
10.21,112.0
10.22,109.0
10.23,89.0
10.24,95.0
10.25,101.0
10.26,105.0
10.27,108.0
10.28,95.0
10.29,106.0
10.3,91.0
10.31,128.0
10.32,122.0
10.33,106.0
10.34,142.0
10.35,114.0
10.36,142.0
10.37,151.0
10.38,151.0
10.39,189.0
10.4,207.0
10.41,202.0
10.42,211.0
10.43,288.0
10.44,336.0
10.45,297.0
10.46,371.0
10.47,393.0
10.48,308.0
10.49,302.0
10.5,226.0
10.51,149.0
10.52,155.0
10.53,130.0
10.54,144.0
10.55,141.0
10.56,108.0
10.57,121.0
10.58,101.0
10.59,106.0
10.6,106.0
10.61,96.0
10.62,107.0
10.63,94.0
10.64,95.0
10.65,104.0
10.66,88.0
10.67,99.0
10.68,107.0
10.69,107.0
10.7,93.0
10.71,108.0
10.72,81.0
10.73,89.0
10.74,100.0
10.75,88.0
10.76,91.0
10.77,110.0
10.78,92.0
10.79,93.0
10.8,97.0
10.81,103.0
10.82,103.0
10.83,96.0
10.84,80.0
10.85,98.0
10.86,80.0
10.87,100.0
10.88,96.0
10.89,83.0
10.9,97.0
10.91,78.0
10.92,96.0
10.93,79.0
10.94,90.0
10.95,104.0
10.96,89.0
10.97,117.0
10.98,85.0
10.99,99.0
11.0,91.0
11.01,93.0
11.02,103.0
11.03,84.0
11.04,89.0
11.05,88.0
11.06,102.0
11.07,94.0
11.08,78.0
11.09,89.0
11.1,95.0
11.11,86.0
11.12,96.0
11.13,91.0
11.14,95.0
11.15,83.0
11.16,79.0
11.17,80.0
11.18,91.0
11.19,82.0
11.2,98.0
11.21,98.0
11.22,86.0
11.23,98.0
11.24,98.0
11.25,84.0
11.26,89.0
11.27,102.0
11.28,81.0
11.29,90.0
11.3,75.0
11.31,100.0
11.32,81.0
11.33,85.0
11.34,95.0
11.35,76.0
11.36,90.0
11.37,88.0
11.38,86.0
11.39,108.0
11.4,98.0
11.41,104.0
11.42,105.0
11.43,90.0
11.44,85.0
11.45,97.0
11.46,70.0
11.47,96.0
11.48,91.0
11.49,90.0
11.5,94.0
11.51,83.0
11.52,93.0
11.53,111.0
11.54,92.0
11.55,83.0
11.56,86.0
11.57,104.0
11.58,75.0
11.59,73.0
11.6,82.0
11.61,87.0
11.62,91.0
11.63,96.0
11.64,70.0
11.65,95.0
11.66,88.0
11.67,77.0
11.68,73.0
11.69,92.0
11.7,90.0
11.71,93.0
11.72,81.0
11.73,89.0
11.74,99.0
11.75,100.0
11.76,85.0
11.77,81.0
11.78,78.0
11.79,76.0
11.8,82.0
11.81,98.0
11.82,106.0
11.83,80.0
11.84,90.0
11.85,88.0
11.86,79.0
11.87,82.0
11.88,74.0
11.89,101.0
11.9,96.0
11.91,100.0
11.92,82.0
11.93,84.0
11.94,93.0
11.95,109.0
11.96,80.0
11.97,84.0
11.98,92.0
11.99,98.0
12.0,82.0
12.01,86.0
12.02,84.0
12.03,89.0
12.04,99.0
12.05,79.0
12.06,93.0
12.07,98.0
12.08,90.0
12.09,91.0
12.1,85.0
12.11,83.0
12.12,89.0
12.13,97.0
12.14,105.0
12.15,102.0
12.16,112.0
12.17,76.0
12.18,88.0
12.19,111.0
12.2,113.0
12.21,100.0
12.22,78.0
12.23,99.0
12.24,97.0
12.25,101.0
12.26,86.0
12.27,87.0
12.28,105.0
12.29,102.0
12.3,81.0
12.31,97.0
12.32,110.0
12.33,107.0
12.34,90.0
12.35,93.0
12.36,97.0
12.37,102.0
12.38,90.0
12.39,91.0
12.4,78.0
12.41,98.0
12.42,78.0
12.43,103.0
12.44,84.0
12.45,83.0
12.46,80.0
12.47,103.0
12.48,85.0
12.49,99.0
12.5,106.0
12.51,86.0
12.52,100.0
12.53,93.0
12.54,71.0
12.55,92.0
12.56,103.0
12.57,105.0
12.58,104.0
12.59,84.0
12.6,85.0
12.61,95.0
12.62,104.0
12.63,106.0
12.64,84.0
12.65,88.0
12.66,82.0
12.67,100.0
12.68,106.0
12.69,87.0
12.7,110.0
12.71,87.0
12.72,74.0
12.73,91.0
12.74,84.0
12.75,100.0
12.76,87.0
12.77,105.0
12.78,95.0
12.79,82.0
12.8,99.0
12.81,86.0
12.82,102.0
12.83,89.0
12.84,92.0
12.85,99.0
12.86,83.0
12.87,102.0
12.88,100.0
12.89,96.0
12.9,101.0
12.91,87.0
12.92,100.0
12.93,106.0
12.94,86.0
12.95,101.0
12.96,96.0
12.97,88.0
12.98,100.0
12.99,100.0
13.0,102.0
13.01,103.0
13.02,102.0
13.03,108.0
13.04,99.0
13.05,101.0
13.06,83.0
13.07,90.0
13.08,109.0
13.09,97.0
13.1,76.0
13.11,85.0
13.12,83.0
13.13,88.0
13.14,106.0
13.15,98.0
13.16,93.0
13.17,104.0
13.18,114.0
13.19,96.0
13.2,92.0
13.21,116.0
13.22,86.0
13.23,98.0
13.24,102.0
13.25,100.0
13.26,83.0
13.27,112.0
13.28,84.0
13.29,86.0
13.3,89.0
13.31,68.0
13.32,87.0
13.33,89.0
13.34,95.0
13.35,111.0
13.36,93.0
13.37,88.0
13.38,96.0
13.39,107.0
13.4,83.0
13.41,109.0
13.42,91.0
13.43,82.0
13.44,92.0
13.45,100.0
13.46,86.0
13.47,82.0
13.48,86.0
13.49,105.0
13.5,81.0
13.51,106.0
13.52,98.0
13.53,96.0
13.54,90.0
13.55,85.0
13.56,106.0
13.57,88.0
13.58,86.0
13.59,89.0
13.6,85.0
13.61,95.0
13.62,87.0
13.63,83.0
13.64,78.0
13.65,80.0
13.66,92.0
13.67,99.0
13.68,107.0
13.69,97.0
13.7,95.0
13.71,95.0
13.72,95.0
13.73,89.0
13.74,99.0
13.75,90.0
13.76,98.0
13.77,102.0
13.78,79.0
13.79,94.0
13.8,101.0
13.81,87.0
13.82,98.0
13.83,92.0
13.84,92.0
13.85,92.0
13.86,96.0
13.87,101.0
13.88,90.0
13.89,96.0
13.9,96.0
13.91,95.0
13.92,91.0
13.93,98.0
13.94,112.0
13.95,102.0
13.96,98.0
13.97,102.0
13.98,97.0
13.99,98.0
14.0,100.0
14.01,91.0
14.02,80.0
14.03,91.0
14.04,78.0
14.05,84.0
14.06,95.0
14.07,103.0
14.08,99.0
14.09,91.0
14.1,97.0
14.11,116.0
14.12,108.0
14.13,93.0
14.14,97.0
14.15,106.0
14.16,100.0
14.17,87.0
14.18,90.0
14.19,85.0
14.2,91.0
14.21,103.0
14.22,86.0
14.23,90.0
14.24,99.0
14.25,104.0
14.26,94.0
14.27,97.0
14.28,91.0
14.29,87.0
14.3,109.0
14.31,91.0
14.32,109.0
14.33,91.0
14.34,90.0
14.35,100.0
14.36,77.0
14.37,92.0
14.38,107.0
14.39,99.0
14.4,96.0
14.41,104.0
14.42,87.0
14.43,102.0
14.44,96.0
14.45,105.0
14.46,112.0
14.47,107.0
14.48,95.0
14.49,107.0
14.5,103.0
14.51,86.0
14.52,93.0
14.53,98.0
14.54,90.0
14.55,97.0
14.56,111.0
14.57,77.0
14.58,92.0
14.59,117.0
14.6,93.0
14.61,81.0
14.62,86.0
14.63,101.0
14.64,91.0
14.65,90.0
14.66,104.0
14.67,94.0
14.68,95.0
14.69,83.0
14.7,110.0
14.71,80.0
14.72,116.0
14.73,102.0
14.74,105.0
14.75,100.0
14.76,89.0
14.77,92.0
14.78,95.0
14.79,115.0
14.8,69.0
14.81,91.0
14.82,99.0
14.83,104.0
14.84,105.0
14.85,118.0
14.86,93.0
14.87,97.0
14.88,100.0
14.89,89.0
14.9,86.0
14.91,97.0
14.92,90.0
14.93,101.0
14.94,103.0
14.95,88.0
14.96,110.0
14.97,85.0
14.98,78.0
14.99,89.0
15.0,96.0
15.01,89.0
15.02,112.0
15.03,94.0
15.04,79.0
15.05,88.0
15.06,86.0
15.07,98.0
15.08,79.0
15.09,94.0
15.1,96.0
15.11,103.0
15.12,92.0
15.13,90.0
15.14,103.0
15.15,87.0
15.16,102.0
15.17,80.0
15.18,87.0
15.19,84.0
15.2,106.0
15.21,91.0
15.22,98.0
15.23,88.0
15.24,82.0
15.25,81.0
15.26,112.0
15.27,88.0
15.28,111.0
15.29,99.0
15.3,90.0
15.31,104.0
15.32,91.0
15.33,76.0
15.34,87.0
15.35,105.0
15.36,93.0
15.37,93.0
15.38,106.0
15.39,91.0
15.4,91.0
15.41,99.0
15.42,96.0
15.43,105.0
15.44,88.0
15.45,95.0
15.46,94.0
15.47,101.0
15.48,105.0
15.49,89.0
15.5,98.0
15.51,119.0
15.52,99.0
15.53,110.0
15.54,80.0
15.55,120.0
15.56,96.0
15.57,87.0
15.58,103.0
15.59,81.0
15.6,80.0
15.61,91.0
15.62,101.0
15.63,89.0
15.64,99.0
15.65,75.0
15.66,89.0
15.67,100.0
15.68,108.0
15.69,93.0
15.7,94.0
15.71,101.0
15.72,100.0
15.73,96.0
15.74,87.0
15.75,91.0
15.76,95.0
15.77,111.0
15.78,105.0
15.79,90.0
15.8,79.0
15.81,91.0
15.82,85.0
15.83,94.0
15.84,103.0
15.85,83.0
15.86,94.0
15.87,104.0
15.88,83.0
15.89,104.0
15.9,96.0
15.91,97.0
15.92,79.0
15.93,87.0
15.94,96.0
15.95,106.0
15.96,95.0
15.97,110.0
15.98,96.0
15.99,98.0
16.0,112.0
16.01,97.0
16.02,106.0
16.03,89.0
16.04,100.0
16.05,97.0
16.06,95.0
16.07,107.0
16.08,97.0
16.09,93.0
16.1,90.0
16.11,103.0
16.12,91.0
16.13,89.0
16.14,118.0
16.15,90.0
16.16,103.0
16.17,115.0
16.18,99.0
16.19,76.0
16.2,97.0
16.21,96.0
16.22,109.0
16.23,117.0
16.24,92.0
16.25,103.0
16.26,107.0
16.27,112.0
16.28,104.0
16.29,74.0
16.3,95.0
16.31,101.0
16.32,94.0
16.33,90.0
16.34,97.0
16.35,92.0
16.36,87.0
16.37,97.0
16.38,111.0
16.39,89.0
16.4,97.0
16.41,78.0
16.42,114.0
16.43,103.0
16.44,92.0
16.45,87.0
16.46,92.0
16.47,89.0
16.48,83.0
16.49,91.0
16.5,72.0
16.51,91.0
16.52,94.0
16.53,95.0
16.54,90.0
16.55,79.0
16.56,97.0
16.57,88.0
16.58,78.0
16.59,76.0
16.6,95.0
16.61,90.0
16.62,96.0
16.63,108.0
16.64,91.0
16.65,100.0
16.66,103.0
16.67,94.0
16.68,90.0
16.69,97.0
16.7,82.0
16.71,111.0
16.72,84.0
16.73,102.0
16.74,85.0
16.75,103.0
16.76,86.0
16.77,87.0
16.78,82.0
16.79,99.0
16.8,101.0
16.81,99.0
16.82,110.0
16.83,93.0
16.84,81.0
16.85,92.0
16.86,102.0
16.87,108.0
16.88,104.0
16.89,106.0
16.9,76.0
16.91,80.0
16.92,95.0
16.93,82.0
16.94,86.0
16.95,103.0
16.96,99.0
16.97,129.0
16.98,76.0
16.99,93.0
17.0,98.0
17.01,87.0
17.02,102.0
17.03,104.0
17.04,83.0
17.05,93.0
17.06,108.0
17.07,101.0
17.08,92.0
17.09,93.0
17.1,96.0
17.11,101.0
17.12,90.0
17.13,97.0
17.14,86.0
17.15,95.0
17.16,91.0
17.17,89.0
17.18,95.0
17.19,85.0
17.2,106.0
17.21,102.0
17.22,113.0
17.23,99.0
17.24,94.0
17.25,92.0
17.26,95.0
17.27,93.0
17.28,105.0
17.29,94.0
17.3,99.0
17.31,98.0
17.32,89.0
17.33,111.0
17.34,92.0
17.35,94.0
17.36,119.0
17.37,92.0
17.38,110.0
17.39,113.0
17.4,111.0
17.41,105.0
17.42,97.0
17.43,118.0
17.44,85.0
17.45,91.0
17.46,106.0
17.47,87.0
17.48,95.0
17.49,90.0
17.5,104.0
17.51,117.0
17.52,112.0
17.53,103.0
17.54,91.0
17.55,114.0
17.56,97.0
17.57,101.0
17.58,78.0
17.59,102.0
17.6,79.0
17.61,104.0
17.62,88.0
17.63,113.0
17.64,101.0
17.65,81.0
17.66,89.0
17.67,128.0
17.68,97.0
17.69,91.0
17.7,89.0
17.71,88.0
17.72,99.0
17.73,92.0
17.74,97.0
17.75,122.0
17.76,117.0
17.77,81.0
17.78,92.0
17.79,101.0
17.8,95.0
17.81,94.0
17.82,100.0
17.83,103.0
17.84,85.0
17.85,114.0
17.86,84.0
17.87,113.0
17.88,108.0
17.89,103.0
17.9,99.0
17.91,113.0
17.92,102.0
17.93,104.0
17.94,98.0
17.95,110.0
17.96,99.0
17.97,101.0
17.98,104.0
17.99,101.0
18.0,91.0
18.01,124.0
18.02,103.0
18.03,101.0
18.04,106.0
18.05,86.0
18.06,99.0
18.07,104.0
18.08,107.0
18.09,93.0
18.1,102.0
18.11,103.0
18.12,98.0
18.13,101.0
18.14,95.0
18.15,100.0
18.16,96.0
18.17,111.0
18.18,84.0
18.19,116.0
18.2,108.0
18.21,99.0
18.22,99.0
18.23,84.0
18.24,99.0
18.25,101.0
18.26,100.0
18.27,98.0
18.28,90.0
18.29,97.0
18.3,91.0
18.31,103.0
18.32,90.0
18.33,94.0
18.34,108.0
18.35,92.0
18.36,100.0
18.37,95.0
18.38,102.0
18.39,82.0
18.4,77.0
18.41,112.0
18.42,118.0
18.43,106.0
18.44,97.0
18.45,97.0
18.46,105.0
18.47,97.0
18.48,93.0
18.49,89.0
18.5,111.0
18.51,117.0
18.52,111.0
18.53,115.0
18.54,124.0
18.55,91.0
18.56,105.0
18.57,114.0
18.58,105.0
18.59,91.0
18.6,104.0
18.61,92.0
18.62,95.0
18.63,115.0
18.64,92.0
18.65,110.0
18.66,105.0
18.67,100.0
18.68,114.0
18.69,106.0
18.7,83.0
18.71,88.0
18.72,94.0
18.73,93.0
18.74,103.0
18.75,101.0
18.76,90.0
18.77,99.0
18.78,102.0
18.79,97.0
18.8,91.0
18.81,95.0
18.82,103.0
18.83,90.0
18.84,93.0
18.85,88.0
18.86,92.0
18.87,103.0
18.88,100.0
18.89,108.0
18.9,106.0
18.91,108.0
18.92,98.0
18.93,106.0
18.94,85.0
18.95,104.0
18.96,91.0
18.97,96.0
18.98,90.0
18.99,93.0
19.0,105.0
19.01,96.0
19.02,115.0
19.03,95.0
19.04,89.0
19.05,95.0
19.06,92.0
19.07,91.0
19.08,93.0
19.09,90.0
19.1,85.0
19.11,99.0
19.12,95.0
19.13,111.0
19.14,102.0
19.15,119.0
19.16,120.0
19.17,103.0
19.18,91.0
19.19,104.0
19.2,79.0
19.21,109.0
19.22,92.0
19.23,106.0
19.24,93.0
19.25,88.0
19.26,102.0
19.27,94.0
19.28,109.0
19.29,120.0
19.3,108.0
19.31,91.0
19.32,95.0
19.33,78.0
19.34,104.0
19.35,112.0
19.36,100.0
19.37,104.0
19.38,97.0
19.39,113.0
19.4,109.0
19.41,111.0
19.42,98.0
19.43,97.0
19.44,106.0
19.45,99.0
19.46,107.0
19.47,97.0
19.48,115.0
19.49,100.0
19.5,101.0
19.51,121.0
19.52,110.0
19.53,108.0
19.54,90.0
19.55,119.0
19.56,95.0
19.57,107.0
19.58,120.0
19.59,105.0
19.6,114.0
19.61,134.0
19.62,114.0
19.63,117.0
19.64,112.0
19.65,116.0
19.66,134.0
19.67,142.0
19.68,152.0
19.69,108.0
19.7,133.0
19.71,141.0
19.72,115.0
19.73,104.0
19.74,127.0
19.75,124.0
19.76,121.0
19.77,126.0
19.78,108.0
19.79,106.0
19.8,107.0
19.81,120.0
19.82,96.0
19.83,107.0
19.84,98.0
19.85,124.0
19.86,94.0
19.87,108.0
19.88,106.0
19.89,94.0
19.9,104.0
19.91,114.0
19.92,114.0
19.93,128.0
19.94,97.0
19.95,93.0
19.96,95.0
19.97,106.0
19.98,102.0
19.99,102.0
20.0,98.0
20.01,114.0
20.02,95.0
20.03,95.0
20.04,118.0
20.05,100.0
20.06,96.0
20.07,105.0
20.08,92.0
20.09,96.0
20.1,104.0
20.11,96.0
20.12,94.0
20.13,112.0
20.14,88.0
20.15,102.0
20.16,107.0
20.17,105.0
20.18,113.0
20.19,90.0
20.2,106.0
20.21,97.0
20.22,87.0
20.23,107.0
20.24,101.0
20.25,104.0
20.26,107.0
20.27,87.0
20.28,106.0
20.29,111.0
20.3,105.0
20.31,95.0
20.32,111.0
20.33,95.0
20.34,92.0
20.35,90.0
20.36,98.0
20.37,118.0
20.38,92.0
20.39,79.0
20.4,107.0
20.41,97.0
20.42,113.0
20.43,102.0
20.44,104.0
20.45,86.0
20.46,107.0
20.47,96.0
20.48,100.0
20.49,96.0
20.5,84.0
20.51,90.0
20.52,102.0
20.53,85.0
20.54,95.0
20.55,93.0
20.56,94.0
20.57,88.0
20.58,104.0
20.59,81.0
20.6,95.0
20.61,108.0
20.62,111.0
20.63,99.0
20.64,92.0
20.65,95.0
20.66,88.0
20.67,77.0
20.68,87.0
20.69,79.0
20.7,102.0
20.71,100.0
20.72,105.0
20.73,109.0
20.74,101.0
20.75,100.0
20.76,113.0
20.77,96.0
20.78,98.0
20.79,89.0
20.8,100.0
20.81,95.0
20.82,90.0
20.83,93.0
20.84,105.0
20.85,101.0
20.86,118.0
20.87,101.0
20.88,97.0
20.89,88.0
20.9,105.0
20.91,100.0
20.92,94.0
20.93,98.0
20.94,106.0
20.95,126.0
20.96,116.0
20.97,108.0
20.98,98.0
20.99,111.0
21.0,107.0
21.01,90.0
21.02,91.0
21.03,98.0
21.04,116.0
21.05,105.0
21.06,108.0
21.07,83.0
21.08,94.0
21.09,99.0
21.1,93.0
21.11,85.0
21.12,109.0
21.13,77.0
21.14,99.0
21.15,69.0
21.16,115.0
21.17,99.0
21.18,82.0
21.19,108.0
21.2,82.0
21.21,100.0
21.22,111.0
21.23,106.0
21.24,94.0
21.25,94.0
21.26,93.0
21.27,96.0
21.28,108.0
21.29,110.0
21.3,102.0
21.31,87.0
21.32,95.0
21.33,88.0
21.34,109.0
21.35,98.0
21.36,104.0
21.37,103.0
21.38,94.0
21.39,79.0
21.4,84.0
21.41,91.0
21.42,109.0
21.43,102.0
21.44,103.0
21.45,104.0
21.46,95.0
21.47,102.0
21.48,87.0
21.49,114.0
21.5,109.0
21.51,109.0
21.52,93.0
21.53,108.0
21.54,96.0
21.55,105.0
21.56,108.0
21.57,97.0
21.58,89.0
21.59,120.0
21.6,102.0
21.61,99.0
21.62,95.0
21.63,101.0
21.64,96.0
21.65,104.0
21.66,94.0
21.67,84.0
21.68,99.0
21.69,102.0
21.7,116.0
21.71,93.0
21.72,76.0
21.73,103.0
21.74,125.0
21.75,92.0
21.76,108.0
21.77,106.0
21.78,91.0
21.79,107.0
21.8,98.0
21.81,101.0
21.82,78.0
21.83,101.0
21.84,93.0
21.85,101.0
21.86,105.0
21.87,92.0
21.88,113.0
21.89,92.0
21.9,93.0
21.91,90.0
21.92,102.0
21.93,101.0
21.94,108.0
21.95,102.0
21.96,101.0
21.97,88.0
21.98,108.0
21.99,110.0
22.0,112.0
22.01,119.0
22.02,99.0
22.03,86.0
22.04,97.0
22.05,96.0
22.06,90.0
22.07,106.0
22.08,110.0
22.09,99.0
22.1,108.0
22.11,114.0
22.12,96.0
22.13,99.0
22.14,125.0
22.15,101.0
22.16,93.0
22.17,83.0
22.18,98.0
22.19,92.0
22.2,98.0
22.21,89.0
22.22,99.0
22.23,96.0
22.24,95.0
22.25,85.0
22.26,107.0
22.27,97.0
22.28,117.0
22.29,93.0
22.3,95.0
22.31,96.0
22.32,109.0
22.33,103.0
22.34,106.0
22.35,114.0
22.36,102.0
22.37,110.0
22.38,89.0
22.39,94.0
22.4,85.0
22.41,79.0
22.42,114.0
22.43,101.0
22.44,95.0
22.45,108.0
22.46,107.0
22.47,100.0
22.48,88.0
22.49,113.0
22.5,100.0
22.51,109.0
22.52,81.0
22.53,103.0
22.54,110.0
22.55,92.0
22.56,109.0
22.57,107.0
22.58,86.0
22.59,110.0
22.6,101.0
22.61,96.0
22.62,99.0
22.63,110.0
22.64,85.0
22.65,89.0
22.66,118.0
22.67,111.0
22.68,96.0
22.69,87.0
22.7,104.0
22.71,100.0
22.72,107.0
22.73,106.0
22.74,108.0
22.75,95.0
22.76,101.0
22.77,103.0
22.78,130.0
22.79,102.0
22.8,90.0
22.81,89.0
22.82,112.0
22.83,103.0
22.84,109.0
22.85,106.0
22.86,141.0
22.87,103.0
22.88,102.0
22.89,109.0
22.9,103.0
22.91,97.0
22.92,94.0
22.93,103.0
22.94,113.0
22.95,117.0
22.96,103.0
22.97,110.0
22.98,104.0
22.99,102.0
23.0,89.0
23.01,101.0
23.02,95.0
23.03,100.0
23.04,106.0
23.05,109.0
23.06,119.0
23.07,97.0
23.08,98.0
23.09,101.0
23.1,105.0
23.11,108.0
23.12,89.0
23.13,91.0
23.14,92.0
23.15,96.0
23.16,113.0
23.17,98.0
23.18,96.0
23.19,109.0
23.2,98.0
23.21,120.0
23.22,102.0
23.23,120.0
23.24,99.0
23.25,108.0
23.26,96.0
23.27,123.0
23.28,94.0
23.29,109.0
23.3,106.0
23.31,92.0
23.32,117.0
23.33,93.0
23.34,98.0
23.35,100.0
23.36,94.0
23.37,99.0
23.38,89.0
23.39,105.0
23.4,100.0
23.41,108.0
23.42,100.0
23.43,101.0
23.44,88.0
23.45,97.0
23.46,99.0
23.47,114.0
23.48,102.0
23.49,102.0
23.5,121.0
23.51,94.0
23.52,107.0
23.53,113.0
23.54,107.0
23.55,119.0
23.56,95.0
23.57,100.0
23.58,84.0
23.59,91.0
23.6,94.0
23.61,94.0
23.62,89.0
23.63,85.0
23.64,109.0
23.65,98.0
23.66,128.0
23.67,118.0
23.68,118.0
23.69,114.0
23.7,110.0
23.71,90.0
23.72,108.0
23.73,106.0
23.74,102.0
23.75,101.0
23.76,96.0
23.77,120.0
23.78,100.0
23.79,103.0
23.8,110.0
23.81,106.0
23.82,105.0
23.83,112.0
23.84,97.0
23.85,83.0
23.86,93.0
23.87,97.0
23.88,93.0
23.89,106.0
23.9,92.0
23.91,109.0
23.92,111.0
23.93,106.0
23.94,92.0
23.95,88.0
23.96,104.0
23.97,110.0
23.98,105.0
23.99,99.0
24.0,128.0
24.01,116.0
24.02,106.0
24.03,104.0
24.04,100.0
24.05,98.0
24.06,87.0
24.07,111.0
24.08,97.0
24.09,86.0
24.1,113.0
24.11,102.0
24.12,86.0
24.13,93.0
24.14,104.0
24.15,95.0
24.16,101.0
24.17,102.0
24.18,110.0
24.19,119.0
24.2,100.0
24.21,125.0
24.22,87.0
24.23,104.0
24.24,115.0
24.25,105.0
24.26,108.0
24.27,93.0
24.28,110.0
24.29,108.0
24.3,101.0
24.31,112.0
24.32,115.0
24.33,106.0
24.34,99.0
24.35,103.0
24.36,116.0
24.37,111.0
24.38,108.0
24.39,104.0
24.4,95.0
24.41,98.0
24.42,97.0
24.43,104.0
24.44,110.0
24.45,107.0
24.46,108.0
24.47,98.0
24.48,96.0
24.49,106.0
24.5,107.0
24.51,96.0
24.52,96.0
24.53,114.0
24.54,102.0
24.55,110.0
24.56,101.0
24.57,97.0
24.58,120.0
24.59,103.0
24.6,96.0
24.61,87.0
24.62,91.0
24.63,94.0
24.64,103.0
24.65,102.0
24.66,119.0
24.67,105.0
24.68,76.0
24.69,99.0
24.7,99.0
24.71,96.0
24.72,98.0
24.73,93.0
24.74,108.0
24.75,105.0
24.76,96.0
24.77,114.0
24.78,93.0
24.79,101.0
24.8,94.0
24.81,120.0
24.82,105.0
24.83,98.0
24.84,93.0
24.85,112.0
24.86,96.0
24.87,111.0
24.88,100.0
24.89,85.0
24.9,103.0
24.91,109.0
24.92,111.0
24.93,106.0
24.94,86.0
24.95,122.0
24.96,121.0
24.97,113.0
24.98,96.0
24.99,85.0
25.0,114.0
25.01,86.0
25.02,110.0
25.03,88.0
25.04,104.0
25.05,115.0
25.06,104.0
25.07,114.0
25.08,95.0
25.09,78.0
25.1,119.0
25.11,104.0
25.12,95.0
25.13,100.0
25.14,108.0
25.15,106.0
25.16,94.0
25.17,121.0
25.18,113.0
25.19,97.0
25.2,108.0
25.21,109.0
25.22,107.0
25.23,101.0
25.24,107.0
25.25,73.0
25.26,97.0
25.27,117.0
25.28,102.0
25.29,110.0
25.3,100.0
25.31,104.0
25.32,97.0
25.33,115.0
25.34,109.0
25.35,89.0
25.36,103.0
25.37,109.0
25.38,94.0
25.39,86.0
25.4,86.0
25.41,102.0
25.42,104.0
25.43,100.0
25.44,107.0
25.45,114.0
25.46,97.0
25.47,96.0
25.48,100.0
25.49,103.0
25.5,104.0
25.51,115.0
25.52,95.0
25.53,96.0
25.54,110.0
25.55,102.0
25.56,110.0
25.57,124.0
25.58,113.0
25.59,103.0
25.6,100.0
25.61,114.0
25.62,110.0
25.63,121.0
25.64,137.0
25.65,106.0
25.66,112.0
25.67,104.0
25.68,114.0
25.69,111.0
25.7,114.0
25.71,96.0
25.72,90.0
25.73,105.0
25.74,97.0
25.75,102.0
25.76,108.0
25.77,93.0
25.78,109.0
25.79,103.0
25.8,101.0
25.81,115.0
25.82,106.0
25.83,99.0
25.84,92.0
25.85,95.0
25.86,112.0
25.87,98.0
25.88,121.0
25.89,101.0
25.9,108.0
25.91,101.0
25.92,97.0
25.93,116.0
25.94,105.0
25.95,103.0
25.96,111.0
25.97,121.0
25.98,116.0
25.99,106.0
26.0,134.0
26.01,123.0
26.02,154.0
26.03,129.0
26.04,132.0
26.05,147.0
26.06,133.0
26.07,130.0
26.08,130.0
26.09,140.0
26.1,128.0
26.11,121.0
26.12,119.0
26.13,132.0
26.14,132.0
26.15,131.0
26.16,131.0
26.17,135.0
26.18,126.0
26.19,133.0
26.2,129.0
26.21,127.0
26.22,109.0
26.23,104.0
26.24,123.0
26.25,114.0
26.26,103.0
26.27,118.0
26.28,131.0
26.29,92.0
26.3,111.0
26.31,114.0
26.32,99.0
26.33,109.0
26.34,112.0
26.35,118.0
26.36,105.0
26.37,107.0
26.38,109.0
26.39,104.0
26.4,100.0
26.41,124.0
26.42,103.0
26.43,108.0
26.44,111.0
26.45,99.0
26.46,97.0
26.47,111.0
26.48,103.0
26.49,105.0
26.5,108.0
26.51,101.0
26.52,92.0
26.53,105.0
26.54,124.0
26.55,96.0
26.56,110.0
26.57,115.0
26.58,96.0
26.59,114.0
26.6,122.0
26.61,110.0
26.62,114.0
26.63,114.0
26.64,113.0
26.65,108.0
26.66,98.0
26.67,99.0
26.68,109.0
26.69,108.0
26.7,108.0
26.71,117.0
26.72,97.0
26.73,108.0
26.74,108.0
26.75,111.0
26.76,124.0
26.77,97.0
26.78,100.0
26.79,94.0
26.8,88.0
26.81,93.0
26.82,96.0
26.83,106.0
26.84,112.0
26.85,92.0
26.86,113.0
26.87,102.0
26.88,111.0
26.89,105.0
26.9,96.0
26.91,103.0
26.92,91.0
26.93,106.0
26.94,84.0
26.95,117.0
26.96,98.0
26.97,109.0
26.98,98.0
26.99,84.0
27.0,113.0
27.01,111.0
27.02,100.0
27.03,97.0
27.04,116.0
27.05,101.0
27.06,114.0
27.07,103.0
27.08,107.0
27.09,107.0
27.1,107.0
27.11,104.0
27.12,127.0
27.13,114.0
27.14,126.0
27.15,135.0
27.16,132.0
27.17,123.0
27.18,123.0
27.19,118.0
27.2,129.0
27.21,126.0
27.22,106.0
27.23,109.0
27.24,119.0
27.25,117.0
27.26,101.0
27.27,110.0
27.28,108.0
27.29,114.0
27.3,121.0
27.31,97.0
27.32,90.0
27.33,116.0
27.34,99.0
27.35,107.0
27.36,105.0
27.37,108.0
27.38,84.0
27.39,103.0
27.4,99.0
27.41,115.0
27.42,94.0
27.43,111.0
27.44,105.0
27.45,105.0
27.46,96.0
27.47,109.0
27.48,107.0
27.49,96.0
27.5,111.0
27.51,81.0
27.52,104.0
27.53,116.0
27.54,110.0
27.55,98.0
27.56,118.0
27.57,113.0
27.58,114.0
27.59,93.0
27.6,105.0
27.61,96.0
27.62,100.0
27.63,94.0
27.64,102.0
27.65,92.0
27.66,105.0
27.67,108.0
27.68,107.0
27.69,72.0
27.7,98.0
27.71,96.0
27.72,113.0
27.73,109.0
27.74,106.0
27.75,95.0
27.76,106.0
27.77,101.0
27.78,125.0
27.79,112.0
27.8,112.0
27.81,100.0
27.82,111.0
27.83,96.0
27.84,94.0
27.85,112.0
27.86,119.0
27.87,106.0
27.88,100.0
27.89,115.0
27.9,101.0
27.91,83.0
27.92,90.0
27.93,103.0
27.94,106.0
27.95,123.0
27.96,104.0
27.97,111.0
27.98,97.0
27.99,117.0
28.0,117.0
28.01,106.0
28.02,111.0
28.03,116.0
28.04,94.0
28.05,83.0
28.06,113.0
28.07,108.0
28.08,118.0
28.09,112.0
28.1,112.0
28.11,98.0
28.12,96.0
28.13,100.0
28.14,103.0
28.15,117.0
28.16,118.0
28.17,102.0
28.18,95.0
28.19,104.0
28.2,109.0
28.21,116.0
28.22,112.0
28.23,113.0
28.24,102.0
28.25,130.0
28.26,115.0
28.27,103.0
28.28,109.0
28.29,114.0
28.3,126.0
28.31,130.0
28.32,129.0
28.33,105.0
28.34,151.0
28.35,125.0
28.36,156.0
28.37,155.0
28.38,164.0
28.39,214.0
28.4,207.0
28.41,215.0
28.42,196.0
28.43,201.0
28.44,191.0
28.45,181.0
28.46,179.0
28.47,200.0
28.48,170.0
28.49,166.0
28.5,170.0
28.51,149.0
28.52,152.0
28.53,144.0
28.54,133.0
28.55,133.0
28.56,133.0
28.57,119.0
28.58,114.0
28.59,111.0
28.6,128.0
28.61,117.0
28.62,116.0
28.63,113.0
28.64,104.0
28.65,91.0
28.66,114.0
28.67,117.0
28.68,105.0
28.69,114.0
28.7,111.0
28.71,131.0
28.72,94.0
28.73,123.0
28.74,94.0
28.75,96.0
28.76,127.0
28.77,109.0
28.78,102.0
28.79,89.0
28.8,94.0
28.81,97.0
28.82,90.0
28.83,110.0
28.84,110.0
28.85,110.0
28.86,93.0
28.87,95.0
28.88,79.0
28.89,104.0
28.9,113.0
28.91,109.0
28.92,97.0
28.93,116.0
28.94,90.0
28.95,122.0
28.96,90.0
28.97,100.0
28.98,110.0
28.99,97.0
29.0,95.0
29.01,93.0
29.02,127.0
29.03,104.0
29.04,91.0
29.05,106.0
29.06,115.0
29.07,85.0
29.08,125.0
29.09,119.0
29.1,110.0
29.11,103.0
29.12,92.0
29.13,115.0
29.14,81.0
29.15,113.0
29.16,93.0
29.17,96.0
29.18,104.0
29.19,96.0
29.2,103.0
29.21,97.0
29.22,107.0
29.23,98.0
29.24,119.0
29.25,110.0
29.26,98.0
29.27,86.0
29.28,127.0
29.29,81.0
29.3,99.0
29.31,92.0
29.32,122.0
29.33,102.0
29.34,91.0
29.35,86.0
29.36,99.0
29.37,105.0
29.38,100.0
29.39,119.0
29.4,97.0
29.41,79.0
29.42,91.0
29.43,123.0
29.44,93.0
29.45,108.0
29.46,91.0
29.47,79.0
29.48,106.0
29.49,98.0
29.5,115.0
29.51,96.0
29.52,103.0
29.53,96.0
29.54,98.0
29.55,98.0
29.56,95.0
29.57,104.0
29.58,110.0
29.59,107.0
29.6,119.0
29.61,113.0
29.62,98.0
29.63,79.0
29.64,112.0
29.65,99.0
29.66,99.0
29.67,111.0
29.68,117.0
29.69,103.0
29.7,110.0
29.71,106.0
29.72,106.0
29.73,113.0
29.74,97.0
29.75,114.0
29.76,94.0
29.77,104.0
29.78,92.0
29.79,114.0
29.8,100.0
29.81,86.0
29.82,86.0
29.83,86.0
29.84,94.0
29.85,118.0
29.86,101.0
29.87,117.0
29.88,107.0
29.89,111.0
29.9,112.0
29.91,106.0
29.92,98.0
29.93,110.0
29.94,110.0
29.95,107.0
29.96,128.0
29.97,122.0
29.98,105.0
29.99,109.0
30.0,121.0
30.01,100.0
30.02,108.0
30.03,116.0
30.04,125.0
30.05,97.0
30.06,111.0
30.07,98.0
30.08,101.0
30.09,119.0
30.1,117.0
30.11,111.0
30.12,114.0
30.13,86.0
30.14,96.0
30.15,86.0
30.16,104.0
30.17,123.0
30.18,99.0
30.19,107.0
30.2,92.0
30.21,108.0
30.22,109.0
30.23,81.0
30.24,109.0
30.25,103.0
30.26,99.0
30.27,111.0
30.28,95.0
30.29,90.0
30.3,104.0
30.31,102.0
30.32,107.0
30.33,98.0
30.34,121.0
30.35,98.0
30.36,98.0
30.37,100.0
30.38,119.0
30.39,99.0
30.4,104.0
30.41,96.0
30.42,102.0
30.43,92.0
30.44,87.0
30.45,107.0
30.46,101.0
30.47,91.0
30.48,95.0
30.49,86.0
30.5,128.0
30.51,103.0
30.52,97.0
30.53,103.0
30.54,89.0
30.55,95.0
30.56,106.0
30.57,96.0
30.58,101.0
30.59,85.0
30.6,107.0
30.61,82.0
30.62,108.0
30.63,91.0
30.64,111.0
30.65,110.0
30.66,103.0
30.67,86.0
30.68,92.0
30.69,76.0
30.7,99.0
30.71,95.0
30.72,104.0
30.73,102.0
30.74,90.0
30.75,102.0
30.76,97.0
30.77,107.0
30.78,91.0
30.79,100.0
30.8,103.0
30.81,97.0
30.82,97.0
30.83,98.0
30.84,96.0
30.85,90.0
30.86,103.0
30.87,103.0
30.88,98.0
30.89,90.0
30.9,116.0
30.91,111.0
30.92,109.0
30.93,97.0
30.94,107.0
30.95,100.0
30.96,103.0
30.97,103.0
30.98,104.0
30.99,98.0
31.0,93.0
31.01,104.0
31.02,101.0
31.03,112.0
31.04,108.0
31.05,103.0
31.06,84.0
31.07,94.0
31.08,101.0
31.09,94.0
31.1,107.0
31.11,114.0
31.12,112.0
31.13,89.0
31.14,110.0
31.15,95.0
31.16,102.0
31.17,99.0
31.18,100.0
31.19,80.0
31.2,92.0
31.21,105.0
31.22,95.0
31.23,111.0
31.24,92.0
31.25,91.0
31.26,116.0
31.27,92.0
31.28,89.0
31.29,95.0
31.3,92.0
31.31,104.0
31.32,108.0
31.33,95.0
31.34,89.0
31.35,90.0
31.36,111.0
31.37,108.0
31.38,105.0
31.39,113.0
31.4,96.0
31.41,87.0
31.42,79.0
31.43,91.0
31.44,95.0
31.45,94.0
31.46,113.0
31.47,101.0
31.48,98.0
31.49,115.0
31.5,81.0
31.51,86.0
31.52,106.0
31.53,106.0
31.54,102.0
31.55,90.0
31.56,97.0
31.57,97.0
31.58,90.0
31.59,101.0
31.6,109.0
31.61,112.0
31.62,111.0
31.63,103.0
31.64,112.0
31.65,100.0
31.66,109.0
31.67,104.0
31.68,114.0
31.69,103.0
31.7,104.0
31.71,123.0
31.72,106.0
31.73,96.0
31.74,126.0
31.75,140.0
31.76,101.0
31.77,133.0
31.78,128.0
31.79,124.0
31.8,114.0
31.81,118.0
31.82,115.0
31.83,114.0
31.84,108.0
31.85,116.0
31.86,107.0
31.87,100.0
31.88,108.0
31.89,120.0
31.9,95.0
31.91,135.0
31.92,118.0
31.93,104.0
31.94,102.0
31.95,100.0
31.96,123.0
31.97,84.0
31.98,111.0
31.99,105.0
32.0,102.0
32.01,96.0
32.02,92.0
32.03,103.0
32.04,103.0
32.05,90.0
32.06,101.0
32.07,113.0
32.08,106.0
32.09,96.0
32.1,90.0
32.11,112.0
32.12,102.0
32.13,131.0
32.14,90.0
32.15,104.0
32.16,86.0
32.17,87.0
32.18,85.0
32.19,108.0
32.2,99.0
32.21,84.0
32.22,104.0
32.23,90.0
32.24,104.0
32.25,83.0
32.26,98.0
32.27,88.0
32.28,87.0
32.29,119.0
32.3,109.0
32.31,115.0
32.32,82.0
32.33,111.0
32.34,104.0
32.35,109.0
32.36,106.0
32.37,106.0
32.38,106.0
32.39,95.0
32.4,124.0
32.41,100.0
32.42,112.0
32.43,128.0
32.44,127.0
32.45,91.0
32.46,92.0
32.47,125.0
32.48,103.0
32.49,113.0
32.5,114.0
32.51,91.0
32.52,107.0
32.53,109.0
32.54,111.0
32.55,103.0
32.56,114.0
32.57,111.0
32.58,88.0
32.59,117.0
32.6,92.0
32.61,112.0
32.62,116.0
32.63,99.0
32.64,112.0
32.65,111.0
32.66,112.0
32.67,104.0
32.68,116.0
32.69,119.0
32.7,144.0
32.71,111.0
32.72,109.0
32.73,105.0
32.74,129.0
32.75,146.0
32.76,136.0
32.77,141.0
32.78,139.0
32.79,144.0
32.8,141.0
32.81,195.0
32.82,208.0
32.83,201.0
32.84,193.0
32.85,216.0
32.86,188.0
32.87,172.0
32.88,201.0
32.89,175.0
32.9,168.0
32.91,159.0
32.92,189.0
32.93,175.0
32.94,147.0
32.95,148.0
32.96,127.0
32.97,147.0
32.98,133.0
32.99,135.0
33.0,131.0
33.01,107.0
33.02,124.0
33.03,115.0
33.04,142.0
33.05,112.0
33.06,130.0
33.07,96.0
33.08,137.0
33.09,119.0
33.1,96.0
33.11,98.0
33.12,110.0
33.13,110.0
33.14,98.0
33.15,123.0
33.16,112.0
33.17,105.0
33.18,99.0
33.19,100.0
33.2,94.0
33.21,98.0
33.22,105.0
33.23,98.0
33.24,95.0
33.25,105.0
33.26,111.0
33.27,102.0
33.28,100.0
33.29,91.0
33.3,93.0
33.31,96.0
33.32,102.0
33.33,86.0
33.34,106.0
33.35,94.0
33.36,112.0
33.37,90.0
33.38,96.0
33.39,92.0
33.4,98.0
33.41,111.0
33.42,88.0
33.43,88.0
33.44,105.0
33.45,92.0
33.46,99.0
33.47,112.0
33.48,91.0
33.49,98.0
33.5,86.0
33.51,104.0
33.52,104.0
33.53,107.0
33.54,115.0
33.55,98.0
33.56,105.0
33.57,109.0
33.58,91.0
33.59,105.0
33.6,98.0
33.61,82.0
33.62,106.0
33.63,102.0
33.64,111.0
33.65,108.0
33.66,99.0
33.67,86.0
33.68,94.0
33.69,81.0
33.7,111.0
33.71,100.0
33.72,104.0
33.73,101.0
33.74,98.0
33.75,100.0
33.76,92.0
33.77,103.0
33.78,99.0
33.79,103.0
33.8,91.0
33.81,76.0
33.82,90.0
33.83,85.0
33.84,85.0
33.85,99.0
33.86,93.0
33.87,106.0
33.88,89.0
33.89,93.0
33.9,107.0
33.91,95.0
33.92,94.0
33.93,109.0
33.94,63.0
33.95,90.0
33.96,98.0
33.97,96.0
33.98,106.0
33.99,90.0
34.0,94.0
34.01,93.0
34.02,100.0
34.03,82.0
34.04,105.0
34.05,106.0
34.06,87.0
34.07,92.0
34.08,95.0
34.09,106.0
34.1,98.0
34.11,93.0
34.12,108.0
34.13,91.0
34.14,99.0
34.15,99.0
34.16,105.0
34.17,102.0
34.18,94.0
34.19,103.0
34.2,99.0
34.21,109.0
34.22,101.0
34.23,101.0
34.24,105.0
34.25,83.0
34.26,84.0
34.27,98.0
34.28,94.0
34.29,106.0
34.3,99.0
34.31,91.0
34.32,103.0
34.33,92.0
34.34,102.0
34.35,105.0
34.36,104.0
34.37,94.0
34.38,111.0
34.39,109.0
34.4,113.0
34.41,109.0
34.42,118.0
34.43,124.0
34.44,122.0
34.45,115.0
34.46,109.0
34.47,123.0
34.48,102.0
34.49,112.0
34.5,126.0
34.51,132.0
34.52,120.0
34.53,120.0
34.54,119.0
34.55,118.0
34.56,118.0
34.57,125.0
34.58,106.0
34.59,111.0
34.6,102.0
34.61,116.0
34.62,116.0
34.63,111.0
34.64,106.0
34.65,105.0
34.66,100.0
34.67,92.0
34.68,81.0
34.69,105.0
34.7,111.0
34.71,82.0
34.72,101.0
34.73,102.0
34.74,90.0
34.75,115.0
34.76,128.0
34.77,97.0
34.78,100.0
34.79,99.0
34.8,78.0
34.81,105.0
34.82,92.0
34.83,107.0
34.84,96.0
34.85,93.0
34.86,96.0
34.87,83.0
34.88,91.0
34.89,113.0
34.9,113.0
34.91,101.0
34.92,95.0
34.93,82.0
34.94,94.0
34.95,90.0
34.96,93.0
34.97,95.0
34.98,113.0
34.99,95.0
35.0,89.0
35.01,92.0
35.02,102.0
35.03,100.0
35.04,106.0
35.05,94.0
35.06,83.0
35.07,100.0
35.08,90.0
35.09,100.0
35.1,97.0
35.11,117.0
35.12,119.0
35.13,102.0
35.14,108.0
35.15,116.0
35.16,121.0
35.17,91.0
35.18,130.0
35.19,126.0
35.2,104.0
35.21,129.0
35.22,96.0
35.23,120.0
35.24,131.0
35.25,111.0
35.26,137.0
35.27,121.0
35.28,163.0
35.29,138.0
35.3,143.0
35.31,124.0
35.32,134.0
35.33,150.0
35.34,126.0
35.35,130.0
35.36,131.0
35.37,124.0
35.38,126.0
35.39,117.0
35.4,113.0
35.41,118.0
35.42,123.0
35.43,99.0
35.44,126.0
35.45,103.0
35.46,97.0
35.47,119.0
35.48,101.0
35.49,98.0
35.5,102.0
35.51,120.0
35.52,114.0
35.53,107.0
35.54,116.0
35.55,95.0
35.56,107.0
35.57,100.0
35.58,84.0
35.59,102.0
35.6,92.0
35.61,90.0
35.62,104.0
35.63,83.0
35.64,99.0
35.65,103.0
35.66,91.0
35.67,107.0
35.68,121.0
35.69,106.0
35.7,105.0
35.71,108.0
35.72,92.0
35.73,96.0
35.74,101.0
35.75,82.0
35.76,92.0
35.77,92.0
35.78,94.0
35.79,92.0
35.8,93.0
35.81,90.0
35.82,93.0
35.83,101.0
35.84,95.0
35.85,94.0
35.86,96.0
35.87,82.0
35.88,100.0
35.89,103.0
35.9,88.0
35.91,105.0
35.92,89.0
35.93,109.0
35.94,83.0
35.95,118.0
35.96,101.0
35.97,88.0
35.98,89.0
35.99,93.0
36.0,89.0
36.01,84.0
36.02,77.0
36.03,99.0
36.04,95.0
36.05,97.0
36.06,105.0
36.07,112.0
36.08,92.0
36.09,93.0
36.1,112.0
36.11,86.0
36.12,104.0
36.13,111.0
36.14,96.0
36.15,85.0
36.16,91.0
36.17,84.0
36.18,83.0
36.19,105.0
36.2,103.0
36.21,92.0
36.22,86.0
36.23,103.0
36.24,117.0
36.25,91.0
36.26,88.0
36.27,88.0
36.28,91.0
36.29,102.0
36.3,93.0
36.31,105.0
36.32,94.0
36.33,97.0
36.34,113.0
36.35,99.0
36.36,100.0
36.37,103.0
36.38,92.0
36.39,83.0
36.4,86.0
36.41,92.0
36.42,93.0
36.43,98.0
36.44,92.0
36.45,77.0
36.46,98.0
36.47,73.0
36.48,87.0
36.49,95.0
36.5,96.0
36.51,106.0
36.52,77.0
36.53,86.0
36.54,93.0
36.55,89.0
36.56,97.0
36.57,106.0
36.58,118.0
36.59,87.0
36.6,99.0
36.61,89.0
36.62,80.0
36.63,87.0
36.64,105.0
36.65,80.0
36.66,99.0
36.67,92.0
36.68,92.0
36.69,93.0
36.7,110.0
36.71,81.0
36.72,108.0
36.73,103.0
36.74,82.0
36.75,95.0
36.76,97.0
36.77,101.0
36.78,90.0
36.79,109.0
36.8,84.0
36.81,106.0
36.82,100.0
36.83,91.0
36.84,84.0
36.85,81.0
36.86,92.0
36.87,95.0
36.88,79.0
36.89,109.0
36.9,80.0
36.91,90.0
36.92,79.0
36.93,115.0
36.94,84.0
36.95,103.0
36.96,97.0
36.97,93.0
36.98,84.0
36.99,101.0
37.0,91.0
37.01,105.0
37.02,99.0
37.03,77.0
37.04,79.0
37.05,110.0
37.06,100.0
37.07,100.0
37.08,75.0
37.09,100.0
37.1,81.0
37.11,98.0
37.12,104.0
37.13,103.0
37.14,83.0
37.15,86.0
37.16,93.0
37.17,84.0
37.18,103.0
37.19,93.0
37.2,81.0
37.21,85.0
37.22,85.0
37.23,84.0
37.24,86.0
37.25,84.0
37.26,90.0
37.27,95.0
37.28,95.0
37.29,89.0
37.3,91.0
37.31,119.0
37.32,105.0
37.33,93.0
37.34,86.0
37.35,78.0
37.36,110.0
37.37,93.0
37.38,80.0
37.39,91.0
37.4,92.0
37.41,95.0
37.42,83.0
37.43,89.0
37.44,89.0
37.45,88.0
37.46,96.0
37.47,102.0
37.48,94.0
37.49,87.0
37.5,101.0
37.51,96.0
37.52,88.0
37.53,105.0
37.54,87.0
37.55,103.0
37.56,102.0
37.57,101.0
37.58,103.0
37.59,92.0
37.6,81.0
37.61,98.0
37.62,110.0
37.63,97.0
37.64,96.0
37.65,91.0
37.66,80.0
37.67,107.0
37.68,107.0
37.69,99.0
37.7,97.0
37.71,95.0
37.72,109.0
37.73,96.0
37.74,95.0
37.75,94.0
37.76,99.0
37.77,106.0
37.78,98.0
37.79,97.0
37.8,87.0
37.81,97.0
37.82,99.0
37.83,82.0
37.84,84.0
37.85,85.0
37.86,108.0
37.87,93.0
37.88,95.0
37.89,107.0
37.9,84.0
37.91,92.0
37.92,90.0
37.93,99.0
37.94,100.0
37.95,104.0
37.96,85.0
37.97,102.0
37.98,109.0
37.99,105.0
38.0,111.0
38.01,87.0
38.02,93.0
38.03,112.0
38.04,108.0
38.05,103.0
38.06,69.0
38.07,99.0
38.08,79.0
38.09,85.0
38.1,86.0
38.11,85.0
38.12,110.0
38.13,83.0
38.14,78.0
38.15,97.0
38.16,104.0
38.17,96.0
38.18,91.0
38.19,93.0
38.2,94.0
38.21,94.0
38.22,99.0
38.23,102.0
38.24,90.0
38.25,106.0
38.26,96.0
38.27,84.0
38.28,93.0
38.29,88.0
38.3,108.0
38.31,96.0
38.32,84.0
38.33,84.0
38.34,103.0
38.35,81.0
38.36,93.0
38.37,96.0
38.38,101.0
38.39,80.0
38.4,104.0
38.41,104.0
38.42,96.0
38.43,89.0
38.44,114.0
38.45,90.0
38.46,103.0
38.47,83.0
38.48,75.0
38.49,107.0
38.5,104.0
38.51,91.0
38.52,102.0
38.53,123.0
38.54,107.0
38.55,112.0
38.56,101.0
38.57,114.0
38.58,109.0
38.59,105.0
38.6,132.0
38.61,118.0
38.62,109.0
38.63,105.0
38.64,101.0
38.65,97.0
38.66,109.0
38.67,114.0
38.68,95.0
38.69,115.0
38.7,126.0
38.71,99.0
38.72,93.0
38.73,98.0
38.74,102.0
38.75,105.0
38.76,98.0
38.77,98.0
38.78,102.0
38.79,104.0
38.8,103.0
38.81,107.0
38.82,97.0
38.83,104.0
38.84,103.0
38.85,96.0
38.86,83.0
38.87,100.0
38.88,98.0
38.89,81.0
38.9,96.0
38.91,113.0
38.92,82.0
38.93,113.0
38.94,106.0
38.95,95.0
38.96,102.0
38.97,99.0
38.98,97.0
38.99,115.0
39.0,103.0
39.01,81.0
39.02,84.0
39.03,88.0
39.04,95.0
39.05,85.0
39.06,98.0
39.07,102.0
39.08,83.0
39.09,92.0
39.1,96.0
39.11,112.0
39.12,95.0
39.13,114.0
39.14,106.0
39.15,83.0
39.16,104.0
39.17,107.0
39.18,104.0
39.19,107.0
39.2,93.0
39.21,79.0
39.22,97.0
39.23,91.0
39.24,99.0
39.25,83.0
39.26,72.0
39.27,77.0
39.28,94.0
39.29,91.0
39.3,103.0
39.31,98.0
39.32,93.0
39.33,99.0
39.34,84.0
39.35,80.0
39.36,91.0
39.37,89.0
39.38,86.0
39.39,104.0
39.4,94.0
39.41,88.0
39.42,90.0
39.43,101.0
39.44,87.0
39.45,84.0
39.46,98.0
39.47,105.0
39.48,104.0
39.49,96.0
39.5,111.0
39.51,93.0
39.52,98.0
39.53,99.0
39.54,90.0
39.55,88.0
39.56,88.0
39.57,110.0
39.58,95.0
39.59,118.0
39.6,114.0
39.61,114.0
39.62,110.0
39.63,98.0
39.64,116.0
39.65,84.0
39.66,104.0
39.67,118.0
39.68,121.0
39.69,108.0
39.7,111.0
39.71,112.0
39.72,125.0
39.73,104.0
39.74,111.0
39.75,110.0
39.76,100.0
39.77,110.0
39.78,92.0
39.79,96.0
39.8,91.0
39.81,80.0
39.82,99.0
39.83,103.0
39.84,101.0
39.85,104.0
39.86,94.0
39.87,81.0
39.88,88.0
39.89,91.0
39.9,85.0
39.91,104.0
39.92,110.0
39.93,101.0
39.94,98.0
39.95,89.0
39.96,83.0
39.97,108.0
39.98,102.0
39.99,88.0
40.0,83.0
40.01,83.0
40.02,81.0
40.03,90.0
40.04,77.0
40.05,97.0
40.06,89.0
40.07,97.0
40.08,98.0
40.09,97.0
40.1,89.0
40.11,86.0
40.12,91.0
40.13,81.0
40.14,91.0
40.15,72.0
40.16,87.0
40.17,97.0
40.18,103.0
40.19,82.0
40.2,98.0
40.21,84.0
40.22,94.0
40.23,92.0
40.24,81.0
40.25,100.0
40.26,96.0
40.27,108.0
40.28,84.0
40.29,92.0
40.3,92.0
40.31,91.0
40.32,82.0
40.33,99.0
40.34,97.0
40.35,86.0
40.36,96.0
40.37,92.0
40.38,86.0
40.39,99.0
40.4,98.0
40.41,84.0
40.42,86.0
40.43,108.0
40.44,83.0
40.45,95.0
40.46,75.0
40.47,91.0
40.48,86.0
40.49,103.0
40.5,98.0
40.51,105.0
40.52,79.0
40.53,90.0
40.54,72.0
40.55,97.0
40.56,86.0
40.57,94.0
40.58,95.0
40.59,96.0
40.6,101.0
40.61,90.0
40.62,106.0
40.63,101.0
40.64,106.0
40.65,106.0
40.66,86.0
40.67,87.0
40.68,101.0
40.69,95.0
40.7,92.0
40.71,108.0
40.72,81.0
40.73,80.0
40.74,103.0
40.75,70.0
40.76,85.0
40.77,94.0
40.78,78.0
40.79,95.0
40.8,88.0
40.81,87.0
40.82,95.0
40.83,103.0
40.84,85.0
40.85,87.0
40.86,104.0
40.87,93.0
40.88,92.0
40.89,88.0
40.9,81.0
40.91,87.0
40.92,91.0
40.93,107.0
40.94,96.0
40.95,74.0
40.96,80.0
40.97,98.0
40.98,79.0
40.99,108.0
41.0,92.0
41.01,110.0
41.02,103.0
41.03,76.0
41.04,92.0
41.05,94.0
41.06,81.0
41.07,101.0
41.08,90.0
41.09,90.0
41.1,95.0
41.11,89.0
41.12,93.0
41.13,107.0
41.14,108.0
41.15,99.0
41.16,88.0
41.17,104.0
41.18,104.0
41.19,92.0
41.2,97.0
41.21,86.0
41.22,100.0
41.23,96.0
41.24,95.0
41.25,111.0
41.26,107.0
41.27,91.0
41.28,101.0
41.29,112.0
41.3,87.0
41.31,96.0
41.32,108.0
41.33,86.0
41.34,102.0
41.35,97.0
41.36,88.0
41.37,100.0
41.38,114.0
41.39,101.0
41.4,123.0
41.41,101.0
41.42,121.0
41.43,109.0
41.44,140.0
41.45,113.0
41.46,103.0
41.47,141.0
41.48,110.0
41.49,107.0
41.5,117.0
41.51,105.0
41.52,106.0
41.53,110.0
41.54,101.0
41.55,100.0
41.56,112.0
41.57,106.0
41.58,134.0
41.59,88.0
41.6,85.0
41.61,98.0
41.62,92.0
41.63,100.0
41.64,85.0
41.65,99.0
41.66,108.0
41.67,102.0
41.68,95.0
41.69,96.0
41.7,96.0
41.71,85.0
41.72,94.0
41.73,101.0
41.74,67.0
41.75,100.0
41.76,108.0
41.77,90.0
41.78,83.0
41.79,96.0
41.8,96.0
41.81,91.0
41.82,88.0
41.83,86.0
41.84,94.0
41.85,113.0
41.86,81.0
41.87,91.0
41.88,91.0
41.89,89.0
41.9,91.0
41.91,89.0
41.92,98.0
41.93,84.0
41.94,99.0
41.95,100.0
41.96,84.0
41.97,97.0
41.98,93.0
41.99,83.0
42.0,100.0
42.01,109.0
42.02,83.0
42.03,78.0
42.04,105.0
42.05,107.0
42.06,89.0
42.07,71.0
42.08,94.0
42.09,100.0
42.1,106.0
42.11,84.0
42.12,86.0
42.13,96.0
42.14,79.0
42.15,90.0
42.16,101.0
42.17,99.0
42.18,96.0
42.19,81.0
42.2,81.0
42.21,85.0
42.22,100.0
42.23,104.0
42.24,80.0
42.25,107.0
42.26,94.0
42.27,107.0
42.28,97.0
42.29,83.0
42.3,91.0
42.31,102.0
42.32,94.0
42.33,94.0
42.34,92.0
42.35,91.0
42.36,103.0
42.37,99.0
42.38,91.0
42.39,95.0
42.4,86.0
42.41,91.0
42.42,113.0
42.43,97.0
42.44,98.0
42.45,89.0
42.46,85.0
42.47,91.0
42.48,86.0
42.49,99.0
42.5,102.0
42.51,92.0
42.52,94.0
42.53,90.0
42.54,82.0
42.55,93.0
42.56,91.0
42.57,91.0
42.58,110.0
42.59,95.0
42.6,100.0
42.61,108.0
42.62,89.0
42.63,104.0
42.64,93.0
42.65,103.0
42.66,115.0
42.67,89.0
42.68,81.0
42.69,80.0
42.7,84.0
42.71,102.0
42.72,100.0
42.73,93.0
42.74,76.0
42.75,102.0
42.76,100.0
42.77,80.0
42.78,97.0
42.79,100.0
42.8,88.0
42.81,85.0
42.82,78.0
42.83,76.0
42.84,90.0
42.85,95.0
42.86,90.0
42.87,86.0
42.88,91.0
42.89,77.0
42.9,91.0
42.91,89.0
42.92,99.0
42.93,90.0
42.94,102.0
42.95,95.0
42.96,87.0
42.97,87.0
42.98,95.0
42.99,78.0
43.0,86.0
43.01,98.0
43.02,85.0
43.03,90.0
43.04,93.0
43.05,86.0
43.06,103.0
43.07,101.0
43.08,103.0
43.09,92.0
43.1,87.0
43.11,107.0
43.12,114.0
43.13,90.0
43.14,80.0
43.15,91.0
43.16,91.0
43.17,103.0
43.18,70.0
43.19,109.0
43.2,73.0
43.21,100.0
43.22,105.0
43.23,93.0
43.24,95.0
43.25,96.0
43.26,106.0
43.27,106.0
43.28,85.0
43.29,94.0
43.3,84.0
43.31,81.0
43.32,101.0
43.33,82.0
43.34,96.0
43.35,97.0
43.36,104.0
43.37,112.0
43.38,93.0
43.39,102.0
43.4,98.0
43.41,91.0
43.42,110.0
43.43,94.0
43.44,92.0
43.45,103.0
43.46,89.0
43.47,76.0
43.48,110.0
43.49,118.0
43.5,92.0
43.51,100.0
43.52,89.0
43.53,111.0
43.54,107.0
43.55,93.0
43.56,116.0
43.57,104.0
43.58,79.0
43.59,86.0
43.6,105.0
43.61,107.0
43.62,84.0
43.63,106.0
43.64,102.0
43.65,87.0
43.66,105.0
43.67,86.0
43.68,100.0
43.69,89.0
43.7,85.0
43.71,104.0
43.72,90.0
43.73,99.0
43.74,96.0
43.75,102.0
43.76,93.0
43.77,93.0
43.78,95.0
43.79,98.0
43.8,91.0
43.81,71.0
43.82,95.0
43.83,88.0
43.84,105.0
43.85,92.0
43.86,81.0
43.87,94.0
43.88,88.0
43.89,89.0
43.9,90.0
43.91,91.0
43.92,101.0
43.93,84.0
43.94,98.0
43.95,80.0
43.96,98.0
43.97,90.0
43.98,98.0
43.99,100.0
44.0,95.0
44.01,92.0
44.02,103.0
44.03,78.0
44.04,88.0
44.05,91.0
44.06,78.0
44.07,101.0
44.08,87.0
44.09,115.0
44.1,80.0
44.11,94.0
44.12,97.0
44.13,79.0
44.14,96.0
44.15,96.0
44.16,95.0
44.17,90.0
44.18,106.0
44.19,88.0
44.2,89.0
44.21,84.0
44.22,91.0
44.23,116.0
44.24,100.0
44.25,96.0
44.26,92.0
44.27,81.0
44.28,103.0
44.29,101.0
44.3,82.0
44.31,89.0
44.32,79.0
44.33,96.0
44.34,106.0
44.35,100.0
44.36,103.0
44.37,104.0
44.38,96.0
44.39,105.0
44.4,108.0
44.41,113.0
44.42,103.0
44.43,88.0
44.44,86.0
44.45,97.0
44.46,94.0
44.47,102.0
44.48,114.0
44.49,88.0
44.5,101.0
44.51,87.0
44.52,110.0
44.53,88.0
44.54,99.0
44.55,82.0
44.56,104.0
44.57,96.0
44.58,101.0
44.59,98.0
44.6,90.0
44.61,100.0
44.62,106.0
44.63,107.0
44.64,94.0
44.65,104.0
44.66,92.0
44.67,96.0
44.68,97.0
44.69,75.0
44.7,83.0
44.71,95.0
44.72,87.0
44.73,87.0
44.74,104.0
44.75,119.0
44.76,105.0
44.77,82.0
44.78,91.0
44.79,77.0
44.8,98.0
44.81,92.0
44.82,98.0
44.83,110.0
44.84,82.0
44.85,108.0
44.86,85.0
44.87,99.0
44.88,95.0
44.89,90.0
44.9,89.0
44.91,94.0
44.92,93.0
44.93,97.0
44.94,80.0
44.95,91.0
44.96,97.0
44.97,86.0
44.98,99.0
44.99,94.0
45.0,97.0
45.01,97.0
45.02,88.0
45.03,88.0
45.04,94.0
45.05,105.0
45.06,98.0
45.07,90.0
45.08,100.0
45.09,97.0
45.1,92.0
45.11,75.0
45.12,86.0
45.13,91.0
45.14,125.0
45.15,93.0
45.16,103.0
45.17,84.0
45.18,89.0
45.19,87.0
45.2,106.0
45.21,108.0
45.22,108.0
45.23,92.0
45.24,83.0
45.25,110.0
45.26,104.0
45.27,81.0
45.28,96.0
45.29,92.0
45.3,81.0
45.31,89.0
45.32,98.0
45.33,78.0
45.34,93.0
45.35,89.0
45.36,89.0
45.37,83.0
45.38,99.0
45.39,82.0
45.4,97.0
45.41,92.0
45.42,79.0
45.43,109.0
45.44,104.0
45.45,88.0
45.46,82.0
45.47,92.0
45.48,86.0
45.49,99.0
45.5,99.0
45.51,84.0
45.52,90.0
45.53,91.0
45.54,96.0
45.55,84.0
45.56,89.0
45.57,98.0
45.58,102.0
45.59,78.0
45.6,82.0
45.61,94.0
45.62,99.0
45.63,72.0
45.64,106.0
45.65,83.0
45.66,80.0
45.67,96.0
45.68,100.0
45.69,96.0
45.7,88.0
45.71,83.0
45.72,101.0
45.73,74.0
45.74,81.0
45.75,80.0
45.76,101.0
45.77,90.0
45.78,89.0
45.79,92.0
45.8,94.0
45.81,91.0
45.82,96.0
45.83,99.0
45.84,80.0
45.85,89.0
45.86,100.0
45.87,90.0
45.88,92.0
45.89,79.0
45.9,106.0
45.91,73.0
45.92,102.0
45.93,102.0
45.94,81.0
45.95,81.0
45.96,87.0
45.97,101.0
45.98,84.0
45.99,107.0
46.0,94.0
46.01,83.0
46.02,89.0
46.03,103.0
46.04,97.0
46.05,97.0
46.06,103.0
46.07,86.0
46.08,95.0
46.09,93.0
46.1,98.0
46.11,76.0
46.12,83.0
46.13,95.0
46.14,98.0
46.15,98.0
46.16,94.0
46.17,85.0
46.18,107.0
46.19,94.0
46.2,88.0
46.21,82.0
46.22,98.0
46.23,102.0
46.24,84.0
46.25,99.0
46.26,100.0
46.27,85.0
46.28,102.0
46.29,101.0
46.3,72.0
46.31,91.0
46.32,93.0
46.33,101.0
46.34,79.0
46.35,84.0
46.36,87.0
46.37,95.0
46.38,95.0
46.39,91.0
46.4,110.0
46.41,96.0
46.42,93.0
46.43,92.0
46.44,106.0
46.45,105.0
46.46,78.0
46.47,86.0
46.48,81.0
46.49,93.0
46.5,84.0
46.51,83.0
46.52,86.0
46.53,83.0
46.54,82.0
46.55,89.0
46.56,95.0
46.57,83.0
46.58,88.0
46.59,107.0
46.6,74.0
46.61,83.0
46.62,85.0
46.63,79.0
46.64,106.0
46.65,102.0
46.66,105.0
46.67,110.0
46.68,93.0
46.69,87.0
46.7,77.0
46.71,106.0
46.72,96.0
46.73,86.0
46.74,92.0
46.75,99.0
46.76,103.0
46.77,70.0
46.78,83.0
46.79,82.0
46.8,75.0
46.81,94.0
46.82,95.0
46.83,79.0
46.84,84.0
46.85,79.0
46.86,82.0
46.87,111.0
46.88,78.0
46.89,80.0
46.9,96.0
46.91,95.0
46.92,78.0
46.93,89.0
46.94,86.0
46.95,95.0
46.96,98.0
46.97,90.0
46.98,103.0
46.99,89.0
47.0,71.0
47.01,96.0
47.02,95.0
47.03,92.0
47.04,73.0
47.05,93.0
47.06,92.0
47.07,96.0
47.08,82.0
47.09,103.0
47.1,98.0
47.11,87.0
47.12,89.0
47.13,90.0
47.14,84.0
47.15,84.0
47.16,107.0
47.17,86.0
47.18,84.0
47.19,95.0
47.2,96.0
47.21,80.0
47.22,95.0
47.23,83.0
47.24,85.0
47.25,113.0
47.26,88.0
47.27,82.0
47.28,76.0
47.29,93.0
47.3,87.0
47.31,94.0
47.32,84.0
47.33,75.0
47.34,105.0
47.35,79.0
47.36,92.0
47.37,80.0
47.38,92.0
47.39,89.0
47.4,88.0
47.41,92.0
47.42,96.0
47.43,90.0
47.44,93.0
47.45,94.0
47.46,81.0
47.47,71.0
47.48,96.0
47.49,97.0
47.5,97.0
47.51,77.0
47.52,90.0
47.53,92.0
47.54,90.0
47.55,78.0
47.56,92.0
47.57,86.0
47.58,90.0
47.59,85.0
47.6,94.0
47.61,85.0
47.62,105.0
47.63,91.0
47.64,75.0
47.65,80.0
47.66,83.0
47.67,94.0
47.68,84.0
47.69,72.0
47.7,103.0
47.71,77.0
47.72,93.0
47.73,96.0
47.74,114.0
47.75,88.0
47.76,88.0
47.77,112.0
47.78,91.0
47.79,86.0
47.8,92.0
47.81,95.0
47.82,71.0
47.83,92.0
47.84,81.0
47.85,90.0
47.86,79.0
47.87,89.0
47.88,87.0
47.89,103.0
47.9,92.0
47.91,109.0
47.92,94.0
47.93,91.0
47.94,83.0
47.95,88.0
47.96,69.0
47.97,92.0
47.98,83.0
47.99,94.0
48.0,70.0
48.01,91.0
48.02,85.0
48.03,74.0
48.04,88.0
48.05,97.0
48.06,102.0
48.07,90.0
48.08,78.0
48.09,93.0
48.1,91.0
48.11,85.0
48.12,101.0
48.13,89.0
48.14,79.0
48.15,88.0
48.16,106.0
48.17,94.0
48.18,103.0
48.19,93.0
48.2,86.0
48.21,87.0
48.22,90.0
48.23,94.0
48.24,90.0
48.25,84.0
48.26,103.0
48.27,90.0
48.28,90.0
48.29,95.0
48.3,90.0
48.31,95.0
48.32,75.0
48.33,93.0
48.34,93.0
48.35,93.0
48.36,93.0
48.37,94.0
48.38,99.0
48.39,86.0
48.4,102.0
48.41,103.0
48.42,92.0
48.43,83.0
48.44,86.0
48.45,81.0
48.46,77.0
48.47,74.0
48.48,86.0
48.49,86.0
48.5,95.0
48.51,114.0
48.52,78.0
48.53,112.0
48.54,69.0
48.55,96.0
48.56,91.0
48.57,83.0
48.58,93.0
48.59,98.0
48.6,98.0
48.61,94.0
48.62,92.0
48.63,107.0
48.64,85.0
48.65,101.0
48.66,92.0
48.67,105.0
48.68,93.0
48.69,83.0
48.7,88.0
48.71,91.0
48.72,93.0
48.73,91.0
48.74,92.0
48.75,79.0
48.76,101.0
48.77,83.0
48.78,80.0
48.79,90.0
48.8,100.0
48.81,85.0
48.82,78.0
48.83,95.0
48.84,87.0
48.85,102.0
48.86,98.0
48.87,88.0
48.88,94.0
48.89,94.0
48.9,93.0
48.91,97.0
48.92,86.0
48.93,88.0
48.94,88.0
48.95,66.0
48.96,101.0
48.97,103.0
48.98,100.0
48.99,81.0
49.0,91.0
49.01,97.0
49.02,64.0
49.03,87.0
49.04,92.0
49.05,97.0
49.06,104.0
49.07,93.0
49.08,79.0
49.09,66.0
49.1,90.0
49.11,88.0
49.12,99.0
49.13,84.0
49.14,81.0
49.15,84.0
49.16,104.0
49.17,84.0
49.18,84.0
49.19,91.0
49.2,96.0
49.21,106.0
49.22,104.0
49.23,98.0
49.24,80.0
49.25,98.0
49.26,97.0
49.27,83.0
49.28,78.0
49.29,91.0
49.3,75.0
49.31,88.0
49.32,96.0
49.33,90.0
49.34,60.0
49.35,96.0
49.36,86.0
49.37,96.0
49.38,89.0
49.39,81.0
49.4,67.0
49.41,92.0
49.42,81.0
49.43,84.0
49.44,89.0
49.45,96.0
49.46,94.0
49.47,104.0
49.48,93.0
49.49,83.0
49.5,91.0
49.51,76.0
49.52,91.0
49.53,86.0
49.54,79.0
49.55,86.0
49.56,94.0
49.57,114.0
49.58,78.0
49.59,96.0
49.6,84.0
49.61,84.0
49.62,75.0
49.63,84.0
49.64,91.0
49.65,82.0
49.66,100.0
49.67,97.0
49.68,92.0
49.69,100.0
49.7,75.0
49.71,85.0
49.72,87.0
49.73,82.0
49.74,85.0
49.75,92.0
49.76,68.0
49.77,90.0
49.78,100.0
49.79,97.0
49.8,75.0
49.81,89.0
49.82,78.0
49.83,98.0
49.84,76.0
49.85,82.0
49.86,98.0
49.87,79.0
49.88,97.0
49.89,82.0
49.9,90.0
49.91,93.0
49.92,97.0
49.93,81.0
49.94,77.0
49.95,81.0
49.96,81.0
49.97,81.0
49.98,103.0
49.99,80.0
50.0,83.0
50.01,81.0
50.02,94.0
50.03,95.0
50.04,88.0
50.05,83.0
50.06,90.0
50.07,90.0
50.08,88.0
50.09,90.0
50.1,107.0
50.11,74.0
50.12,97.0
50.13,83.0
50.14,70.0
50.15,90.0
50.16,89.0
50.17,100.0
50.18,106.0
50.19,83.0
50.2,80.0
50.21,75.0
50.22,78.0
50.23,81.0
50.24,81.0
50.25,94.0
50.26,77.0
50.27,96.0
50.28,82.0
50.29,93.0
50.3,80.0
50.31,103.0
50.32,85.0
50.33,84.0
50.34,96.0
50.35,94.0
50.36,86.0
50.37,83.0
50.38,99.0
50.39,107.0
50.4,98.0
50.41,85.0
50.42,87.0
50.43,94.0
50.44,98.0
50.45,78.0
50.46,90.0
50.47,86.0
50.48,87.0
50.49,79.0
50.5,90.0
50.51,87.0
50.52,101.0
50.53,104.0
50.54,102.0
50.55,107.0
50.56,85.0
50.57,98.0
50.58,84.0
50.59,107.0
50.6,91.0
50.61,91.0
50.62,83.0
50.63,89.0
50.64,92.0
50.65,83.0
50.66,80.0
50.67,104.0
50.68,87.0
50.69,75.0
50.7,78.0
50.71,89.0
50.72,89.0
50.73,81.0
50.74,83.0
50.75,94.0
50.76,99.0
50.77,97.0
50.78,84.0
50.79,85.0
50.8,86.0
50.81,88.0
50.82,99.0
50.83,90.0
50.84,89.0
50.85,98.0
50.86,83.0
50.87,86.0
50.88,102.0
50.89,81.0
50.9,85.0
50.91,77.0
50.92,88.0
50.93,81.0
50.94,95.0
50.95,94.0
50.96,78.0
50.97,99.0
50.98,100.0
50.99,88.0
51.0,82.0
51.01,84.0
51.02,99.0
51.03,95.0
51.04,69.0
51.05,104.0
51.06,95.0
51.07,85.0
51.08,82.0
51.09,87.0
51.1,89.0
51.11,83.0
51.12,80.0
51.13,106.0
51.14,92.0
51.15,88.0
51.16,83.0
51.17,77.0
51.18,88.0
51.19,93.0
51.2,81.0
51.21,92.0
51.22,79.0
51.23,85.0
51.24,89.0
51.25,85.0
51.26,102.0
51.27,102.0
51.28,89.0
51.29,83.0
51.3,89.0
51.31,73.0
51.32,88.0
51.33,84.0
51.34,106.0
51.35,74.0
51.36,89.0
51.37,73.0
51.38,78.0
51.39,114.0
51.4,79.0
51.41,74.0
51.42,82.0
51.43,87.0
51.44,94.0
51.45,89.0
51.46,86.0
51.47,119.0
51.48,95.0
51.49,84.0
51.5,75.0
51.51,83.0
51.52,80.0
51.53,93.0
51.54,89.0
51.55,94.0
51.56,76.0
51.57,85.0
51.58,71.0
51.59,76.0
51.6,79.0
51.61,100.0
51.62,85.0
51.63,105.0
51.64,76.0
51.65,90.0
51.66,81.0
51.67,78.0
51.68,73.0
51.69,90.0
51.7,82.0
51.71,85.0
51.72,83.0
51.73,84.0
51.74,99.0
51.75,85.0
51.76,91.0
51.77,78.0
51.78,63.0
51.79,83.0
51.8,78.0
51.81,76.0
51.82,90.0
51.83,79.0
51.84,100.0
51.85,89.0
51.86,96.0
51.87,101.0
51.88,72.0
51.89,78.0
51.9,99.0
51.91,91.0
51.92,80.0
51.93,105.0
51.94,85.0
51.95,83.0
51.96,88.0
51.97,94.0
51.98,68.0
51.99,75.0
52.0,69.0
52.01,90.0
52.02,86.0
52.03,92.0
52.04,87.0
52.05,90.0
52.06,79.0
52.07,83.0
52.08,91.0
52.09,95.0
52.1,79.0
52.11,110.0
52.12,95.0
52.13,79.0
52.14,74.0
52.15,75.0
52.16,84.0
52.17,75.0
52.18,91.0
52.19,76.0
52.2,89.0
52.21,84.0
52.22,86.0
52.23,101.0
52.24,88.0
52.25,69.0
52.26,76.0
52.27,78.0
52.28,92.0
52.29,95.0
52.3,84.0
52.31,88.0
52.32,95.0
52.33,83.0
52.34,84.0
52.35,78.0
52.36,93.0
52.37,79.0
52.38,81.0
52.39,89.0
52.4,86.0
52.41,86.0
52.42,102.0
52.43,96.0
52.44,92.0
52.45,92.0
52.46,96.0
52.47,91.0
52.48,94.0
52.49,89.0
52.5,72.0
52.51,87.0
52.52,83.0
52.53,91.0
52.54,98.0
52.55,108.0
52.56,95.0
52.57,92.0
52.58,97.0
52.59,91.0
52.6,88.0
52.61,93.0
52.62,109.0
52.63,92.0
52.64,100.0
52.65,78.0
52.66,92.0
52.67,98.0
52.68,91.0
52.69,89.0
52.7,92.0
52.71,92.0
52.72,88.0
52.73,94.0
52.74,89.0
52.75,89.0
52.76,75.0
52.77,87.0
52.78,117.0
52.79,83.0
52.8,90.0
52.81,99.0
52.82,77.0
52.83,80.0
52.84,85.0
52.85,87.0
52.86,96.0
52.87,101.0
52.88,83.0
52.89,101.0
52.9,78.0
52.91,81.0
52.92,81.0
52.93,78.0
52.94,100.0
52.95,83.0
52.96,102.0
52.97,81.0
52.98,88.0
52.99,88.0
53.0,95.0
53.01,79.0
53.02,102.0
53.03,93.0
53.04,79.0
53.05,90.0
53.06,92.0
53.07,82.0
53.08,87.0
53.09,85.0
53.1,89.0
53.11,69.0
53.12,74.0
53.13,64.0
53.14,96.0
53.15,76.0
53.16,79.0
53.17,97.0
53.18,92.0
53.19,89.0
53.2,92.0
53.21,83.0
53.22,76.0
53.23,91.0
53.24,95.0
53.25,106.0
53.26,83.0
53.27,78.0
53.28,124.0
53.29,87.0
53.3,84.0
53.31,100.0
53.32,82.0
53.33,74.0
53.34,112.0
53.35,104.0
53.36,96.0
53.37,106.0
53.38,92.0
53.39,81.0
53.4,87.0
53.41,91.0
53.42,91.0
53.43,81.0
53.44,96.0
53.45,87.0
53.46,79.0
53.47,99.0
53.48,108.0
53.49,97.0
53.5,97.0
53.51,94.0
53.52,87.0
53.53,89.0
53.54,76.0
53.55,86.0
53.56,89.0
53.57,85.0
53.58,93.0
53.59,81.0
53.6,84.0
53.61,90.0
53.62,89.0
53.63,74.0
53.64,84.0
53.65,82.0
53.66,86.0
53.67,93.0
53.68,80.0
53.69,83.0
53.7,101.0
53.71,73.0
53.72,103.0
53.73,87.0
53.74,84.0
53.75,86.0
53.76,86.0
53.77,89.0
53.78,71.0
53.79,104.0
53.8,83.0
53.81,86.0
53.82,94.0
53.83,82.0
53.84,94.0
53.85,71.0
53.86,79.0
53.87,87.0
53.88,105.0
53.89,93.0
53.9,82.0
53.91,66.0
53.92,80.0
53.93,75.0
53.94,97.0
53.95,81.0
53.96,73.0
53.97,99.0
53.98,96.0
53.99,66.0
54.0,83.0
54.01,93.0
54.02,86.0
54.03,83.0
54.04,89.0
54.05,78.0
54.06,80.0
54.07,73.0
54.08,92.0
54.09,89.0
54.1,89.0
54.11,88.0
54.12,82.0
54.13,76.0
54.14,89.0
54.15,86.0
54.16,100.0
54.17,81.0
54.18,85.0
54.19,96.0
54.2,77.0
54.21,97.0
54.22,94.0
54.23,85.0
54.24,84.0
54.25,88.0
54.26,99.0
54.27,84.0
54.28,95.0
54.29,98.0
54.3,100.0
54.31,88.0
54.32,88.0
54.33,85.0
54.34,90.0
54.35,102.0
54.36,103.0
54.37,96.0
54.38,89.0
54.39,94.0
54.4,98.0
54.41,110.0
54.42,85.0
54.43,99.0
54.44,78.0
54.45,85.0
54.46,76.0
54.47,83.0
54.48,84.0
54.49,85.0
54.5,92.0
54.51,92.0
54.52,93.0
54.53,93.0
54.54,101.0
54.55,84.0
54.56,80.0
54.57,96.0
54.58,89.0
54.59,85.0
54.6,89.0
54.61,92.0
54.62,71.0
54.63,94.0
54.64,85.0
54.65,89.0
54.66,94.0
54.67,86.0
54.68,76.0
54.69,90.0
54.7,91.0
54.71,98.0
54.72,90.0
54.73,87.0
54.74,78.0
54.75,94.0
54.76,101.0
54.77,85.0
54.78,87.0
54.79,78.0
54.8,89.0
54.81,95.0
54.82,90.0
54.83,93.0
54.84,83.0
54.85,91.0
54.86,100.0
54.87,98.0
54.88,72.0
54.89,99.0
54.9,96.0
54.91,92.0
54.92,96.0
54.93,81.0
54.94,74.0
54.95,86.0
54.96,84.0
54.97,84.0
54.98,90.0
54.99,77.0
55.0,93.0
55.01,82.0
55.02,90.0
55.03,78.0
55.04,85.0
55.05,97.0
55.06,110.0
55.07,103.0
55.08,91.0
55.09,96.0
55.1,90.0
55.11,102.0
55.12,110.0
55.13,98.0
55.14,88.0
55.15,112.0
55.16,93.0
55.17,116.0
55.18,98.0
55.19,96.0
55.2,92.0
55.21,94.0
55.22,100.0
55.23,89.0
55.24,95.0
55.25,103.0
55.26,102.0
55.27,97.0
55.28,92.0
55.29,81.0
55.3,91.0
55.31,91.0
55.32,98.0
55.33,93.0
55.34,103.0
55.35,98.0
55.36,88.0
55.37,91.0
55.38,98.0
55.39,89.0
55.4,101.0
55.41,89.0
55.42,80.0
55.43,100.0
55.44,87.0
55.45,90.0
55.46,82.0
55.47,83.0
55.48,96.0
55.49,92.0
55.5,78.0
55.51,86.0
55.52,92.0
55.53,67.0
55.54,91.0
55.55,84.0
55.56,87.0
55.57,93.0
55.58,93.0
55.59,71.0
55.6,87.0
55.61,74.0
55.62,84.0
55.63,89.0
55.64,83.0
55.65,107.0
55.66,87.0
55.67,87.0
55.68,90.0
55.69,88.0
55.7,94.0
55.71,71.0
55.72,82.0
55.73,88.0
55.74,93.0
55.75,78.0
55.76,100.0
55.77,106.0
55.78,95.0
55.79,90.0
55.8,98.0
55.81,80.0
55.82,66.0
55.83,84.0
55.84,94.0
55.85,75.0
55.86,85.0
55.87,76.0
55.88,84.0
55.89,82.0
55.9,86.0
55.91,74.0
55.92,89.0
55.93,64.0
55.94,82.0
55.95,82.0
55.96,84.0
55.97,76.0
55.98,79.0
55.99,86.0
56.0,95.0
56.01,100.0
56.02,100.0
56.03,71.0
56.04,87.0
56.05,87.0
56.06,75.0
56.07,90.0
56.08,91.0
56.09,87.0
56.1,86.0
56.11,97.0
56.12,85.0
56.13,84.0
56.14,85.0
56.15,92.0
56.16,87.0
56.17,74.0
56.18,76.0
56.19,92.0
56.2,88.0
56.21,75.0
56.22,103.0
56.23,81.0
56.24,89.0
56.25,83.0
56.26,104.0
56.27,107.0
56.28,91.0
56.29,77.0
56.3,90.0
56.31,80.0
56.32,71.0
56.33,83.0
56.34,92.0
56.35,83.0
56.36,86.0
56.37,84.0
56.38,87.0
56.39,88.0
56.4,102.0
56.41,102.0
56.42,116.0
56.43,92.0
56.44,86.0
56.45,95.0
56.46,81.0
56.47,84.0
56.48,78.0
56.49,83.0
56.5,79.0
56.51,95.0
56.52,84.0
56.53,81.0
56.54,88.0
56.55,82.0
56.56,83.0
56.57,95.0
56.58,79.0
56.59,102.0
56.6,95.0
56.61,91.0
56.62,73.0
56.63,93.0
56.64,85.0
56.65,80.0
56.66,87.0
56.67,92.0
56.68,107.0
56.69,90.0
56.7,69.0
56.71,100.0
56.72,71.0
56.73,79.0
56.74,74.0
56.75,90.0
56.76,73.0
56.77,97.0
56.78,92.0
56.79,98.0
56.8,86.0
56.81,103.0
56.82,79.0
56.83,99.0
56.84,76.0
56.85,68.0
56.86,78.0
56.87,94.0
56.88,95.0
56.89,85.0
56.9,89.0
56.91,91.0
56.92,112.0
56.93,88.0
56.94,74.0
56.95,76.0
56.96,100.0
56.97,76.0
56.98,83.0
56.99,82.0
57.0,83.0
57.01,99.0
57.02,89.0
57.03,93.0
57.04,67.0
57.05,80.0
57.06,87.0
57.07,95.0
57.08,87.0
57.09,91.0
57.1,91.0
57.11,91.0
57.12,86.0
57.13,85.0
57.14,73.0
57.15,84.0
57.16,92.0
57.17,86.0
57.18,94.0
57.19,87.0
57.2,102.0
57.21,87.0
57.22,112.0
57.23,92.0
57.24,92.0
57.25,87.0
57.26,82.0
57.27,97.0
57.28,93.0
57.29,74.0
57.3,84.0
57.31,106.0
57.32,83.0
57.33,96.0
57.34,88.0
57.35,92.0
57.36,93.0
57.37,83.0
57.38,93.0
57.39,75.0
57.4,92.0
57.41,82.0
57.42,94.0
57.43,101.0
57.44,86.0
57.45,97.0
57.46,84.0
57.47,82.0
57.48,98.0
57.49,108.0
57.5,89.0
57.51,102.0
57.52,86.0
57.53,96.0
57.54,84.0
57.55,95.0
57.56,92.0
57.57,88.0
57.58,104.0
57.59,89.0
57.6,86.0
57.61,79.0
57.62,89.0
57.63,86.0
57.64,89.0
57.65,108.0
57.66,100.0
57.67,105.0
57.68,88.0
57.69,82.0
57.7,95.0
57.71,78.0
57.72,90.0
57.73,79.0
57.74,87.0
57.75,83.0
57.76,91.0
57.77,111.0
57.78,80.0
57.79,88.0
57.8,95.0
57.81,91.0
57.82,81.0
57.83,78.0
57.84,79.0
57.85,92.0
57.86,96.0
57.87,92.0
57.88,111.0
57.89,84.0
57.9,84.0
57.91,99.0
57.92,95.0
57.93,91.0
57.94,84.0
57.95,83.0
57.96,100.0
57.97,89.0
57.98,75.0
57.99,81.0
58.0,100.0
58.01,95.0
58.02,85.0
58.03,102.0
58.04,101.0
58.05,75.0
58.06,93.0
58.07,105.0
58.08,98.0
58.09,98.0
58.1,99.0
58.11,96.0
58.12,95.0
58.13,88.0
58.14,87.0
58.15,95.0
58.16,96.0
58.17,110.0
58.18,82.0
58.19,89.0
58.2,86.0
58.21,82.0
58.22,76.0
58.23,91.0
58.24,102.0
58.25,75.0
58.26,89.0
58.27,76.0
58.28,88.0
58.29,94.0
58.3,87.0
58.31,90.0
58.32,84.0
58.33,78.0
58.34,99.0
58.35,78.0
58.36,86.0
58.37,97.0
58.38,90.0
58.39,82.0
58.4,89.0
58.41,86.0
58.42,86.0
58.43,91.0
58.44,87.0
58.45,89.0
58.46,92.0
58.47,80.0
58.48,106.0
58.49,83.0
58.5,83.0
58.51,60.0
58.52,85.0
58.53,92.0
58.54,88.0
58.55,76.0
58.56,92.0
58.57,89.0
58.58,78.0
58.59,72.0
58.6,97.0
58.61,70.0
58.62,78.0
58.63,86.0
58.64,76.0
58.65,79.0
58.66,88.0
58.67,81.0
58.68,89.0
58.69,80.0
58.7,81.0
58.71,97.0
58.72,74.0
58.73,97.0
58.74,93.0
58.75,73.0
58.76,89.0
58.77,75.0
58.78,75.0
58.79,78.0
58.8,67.0
58.81,84.0
58.82,97.0
58.83,91.0
58.84,88.0
58.85,82.0
58.86,99.0
58.87,82.0
58.88,86.0
58.89,95.0
58.9,105.0
58.91,90.0
58.92,78.0
58.93,83.0
58.94,99.0
58.95,72.0
58.96,95.0
58.97,69.0
58.98,90.0
58.99,69.0
59.0,78.0
59.01,98.0
59.02,76.0
59.03,77.0
59.04,82.0
59.05,89.0
59.06,78.0
59.07,82.0
59.08,83.0
59.09,85.0
59.1,96.0
59.11,97.0
59.12,82.0
59.13,102.0
59.14,100.0
59.15,80.0
59.16,66.0
59.17,89.0
59.18,68.0
59.19,72.0
59.2,87.0
59.21,87.0
59.22,95.0
59.23,84.0
59.24,87.0
59.25,98.0
59.26,89.0
59.27,76.0
59.28,81.0
59.29,90.0
59.3,73.0
59.31,87.0
59.32,85.0
59.33,92.0
59.34,95.0
59.35,93.0
59.36,86.0
59.37,89.0
59.38,95.0
59.39,90.0
59.4,86.0
59.41,94.0
59.42,76.0
59.43,82.0
59.44,89.0
59.45,87.0
59.46,70.0
59.47,86.0
59.48,83.0
59.49,90.0
59.5,72.0
59.51,86.0
59.52,103.0
59.53,101.0
59.54,84.0
59.55,102.0
59.56,87.0
59.57,88.0
59.58,88.0
59.59,100.0
59.6,81.0
59.61,85.0
59.62,76.0
59.63,81.0
59.64,69.0
59.65,99.0
59.66,91.0
59.67,96.0
59.68,86.0
59.69,75.0
59.7,98.0
59.71,77.0
59.72,93.0
59.73,82.0
59.74,83.0
59.75,78.0
59.76,69.0
59.77,83.0
59.78,94.0
59.79,90.0
59.8,76.0
59.81,66.0
59.82,73.0
59.83,87.0
59.84,68.0
59.85,82.0
59.86,94.0
59.87,80.0
59.88,88.0
59.89,81.0
59.9,78.0
59.91,74.0
59.92,65.0
59.93,84.0
59.94,81.0
59.95,96.0
59.96,89.0
59.97,66.0
59.98,71.0
59.99,92.0
60.0,83.0
60.01,70.0
60.02,88.0
60.03,83.0
60.04,87.0
60.05,73.0
60.06,88.0
60.07,85.0
60.08,99.0
60.09,85.0
60.1,85.0
60.11,93.0
60.12,89.0
60.13,94.0
60.14,77.0
60.15,90.0
60.16,99.0
60.17,81.0
60.18,65.0
60.19,80.0
60.2,86.0
60.21,84.0
60.22,89.0
60.23,66.0
60.24,94.0
60.25,90.0
60.26,73.0
60.27,101.0
60.28,77.0
60.29,83.0
60.3,87.0
60.31,97.0
60.32,76.0
60.33,75.0
60.34,82.0
60.35,78.0
60.36,86.0
60.37,76.0
60.38,93.0
60.39,86.0
60.4,89.0
60.41,87.0
60.42,67.0
60.43,90.0
60.44,93.0
60.45,84.0
60.46,74.0
60.47,93.0
60.48,90.0
60.49,94.0
60.5,103.0
60.51,82.0
60.52,80.0
60.53,101.0
60.54,85.0
60.55,111.0
60.56,95.0
60.57,94.0
60.58,83.0
60.59,80.0
60.6,89.0
60.61,88.0
60.62,90.0
60.63,88.0
60.64,107.0
60.65,99.0
60.66,76.0
60.67,102.0
60.68,89.0
60.69,81.0
60.7,87.0
60.71,98.0
60.72,94.0
60.73,81.0
60.74,79.0
60.75,87.0
60.76,81.0
60.77,93.0
60.78,92.0
60.79,92.0
60.8,89.0
60.81,89.0
60.82,89.0
60.83,85.0
60.84,90.0
60.85,84.0
60.86,87.0
60.87,98.0
60.88,93.0
60.89,76.0
60.9,71.0
60.91,91.0
60.92,92.0
60.93,104.0
60.94,86.0
60.95,72.0
60.96,115.0
60.97,93.0
60.98,100.0
60.99,85.0
61.0,102.0
61.01,89.0
61.02,91.0
61.03,79.0
61.04,105.0
61.05,72.0
61.06,83.0
61.07,95.0
61.08,81.0
61.09,116.0
61.1,97.0
61.11,86.0
61.12,80.0
61.13,78.0
61.14,90.0
61.15,79.0
61.16,85.0
61.17,96.0
61.18,97.0
61.19,97.0
61.2,84.0
61.21,103.0
61.22,81.0
61.23,92.0
61.24,83.0
61.25,78.0
61.26,90.0
61.27,89.0
61.28,82.0
61.29,90.0
61.3,64.0
61.31,90.0
61.32,66.0
61.33,97.0
61.34,102.0
61.35,81.0
61.36,82.0
61.37,99.0
61.38,85.0
61.39,77.0
61.4,72.0
61.41,77.0
61.42,87.0
61.43,74.0
61.44,99.0
61.45,82.0
61.46,84.0
61.47,84.0
61.48,81.0
61.49,98.0
61.5,74.0
61.51,88.0
61.52,90.0
61.53,105.0
61.54,92.0
61.55,92.0
61.56,88.0
61.57,108.0
61.58,77.0
61.59,90.0
61.6,82.0
61.61,90.0
61.62,83.0
61.63,98.0
61.64,86.0
61.65,93.0
61.66,82.0
61.67,89.0
61.68,93.0
61.69,86.0
61.7,81.0
61.71,88.0
61.72,94.0
61.73,79.0
61.74,101.0
61.75,86.0
61.76,90.0
61.77,98.0
61.78,88.0
61.79,69.0
61.8,85.0
61.81,96.0
61.82,93.0
61.83,81.0
61.84,98.0
61.85,96.0
61.86,83.0
61.87,94.0
61.88,90.0
61.89,81.0
61.9,92.0
61.91,80.0
61.92,82.0
61.93,78.0
61.94,81.0
61.95,84.0
61.96,72.0
61.97,78.0
61.98,94.0
61.99,90.0
62.0,87.0
62.01,104.0
62.02,58.0
62.03,91.0
62.04,80.0
62.05,98.0
62.06,79.0
62.07,88.0
62.08,74.0
62.09,79.0
62.1,75.0
62.11,84.0
62.12,78.0
62.13,77.0
62.14,86.0
62.15,88.0
62.16,80.0
62.17,72.0
62.18,71.0
62.19,96.0
62.2,85.0
62.21,81.0
62.22,98.0
62.23,62.0
62.24,84.0
62.25,84.0
62.26,90.0
62.27,62.0
62.28,84.0
62.29,77.0
62.3,93.0
62.31,94.0
62.32,61.0
62.33,78.0
62.34,89.0
62.35,80.0
62.36,84.0
62.37,68.0
62.38,88.0
62.39,89.0
62.4,104.0
62.41,85.0
62.42,68.0
62.43,86.0
62.44,79.0
62.45,75.0
62.46,79.0
62.47,74.0
62.48,87.0
62.49,91.0
62.5,69.0
62.51,73.0
62.52,75.0
62.53,79.0
62.54,89.0
62.55,68.0
62.56,79.0
62.57,84.0
62.58,63.0
62.59,81.0
62.6,90.0
62.61,84.0
62.62,93.0
62.63,80.0
62.64,101.0
62.65,79.0
62.66,86.0
62.67,94.0
62.68,95.0
62.69,89.0
62.7,88.0
62.71,92.0
62.72,93.0
62.73,95.0
62.74,86.0
62.75,82.0
62.76,88.0
62.77,82.0
62.78,88.0
62.79,70.0
62.8,78.0
62.81,85.0
62.82,89.0
62.83,63.0
62.84,76.0
62.85,91.0
62.86,94.0
62.87,82.0
62.88,94.0
62.89,89.0
62.9,75.0
62.91,91.0
62.92,93.0
62.93,78.0
62.94,87.0
62.95,74.0
62.96,111.0
62.97,87.0
62.98,79.0
62.99,102.0
63.0,107.0
63.01,90.0
63.02,77.0
63.03,57.0
63.04,79.0
63.05,96.0
63.06,68.0
63.07,72.0
63.08,74.0
63.09,82.0
63.1,77.0
63.11,87.0
63.12,86.0
63.13,89.0
63.14,85.0
63.15,72.0
63.16,74.0
63.17,79.0
63.18,71.0
63.19,65.0
63.2,91.0
63.21,91.0
63.22,75.0
63.23,85.0
63.24,83.0
63.25,89.0
63.26,63.0
63.27,81.0
63.28,87.0
63.29,72.0
63.3,84.0
63.31,86.0
63.32,85.0
63.33,84.0
63.34,89.0
63.35,80.0
63.36,76.0
63.37,70.0
63.38,99.0
63.39,79.0
63.4,71.0
63.41,87.0
63.42,71.0
63.43,74.0
63.44,85.0
63.45,94.0
63.46,88.0
63.47,69.0
63.48,89.0
63.49,84.0
63.5,81.0
63.51,81.0
63.52,86.0
63.53,78.0
63.54,92.0
63.55,103.0
63.56,75.0
63.57,91.0
63.58,69.0
63.59,83.0
63.6,82.0
63.61,94.0
63.62,85.0
63.63,62.0
63.64,63.0
63.65,87.0
63.66,84.0
63.67,86.0
63.68,79.0
63.69,87.0
63.7,75.0
63.71,77.0
63.72,83.0
63.73,86.0
63.74,92.0
63.75,85.0
63.76,91.0
63.77,90.0
63.78,88.0
63.79,104.0
63.8,87.0
63.81,83.0
63.82,80.0
63.83,87.0
63.84,87.0
63.85,79.0
63.86,91.0
63.87,88.0
63.88,84.0
63.89,83.0
63.9,66.0
63.91,84.0
63.92,90.0
63.93,82.0
63.94,82.0
63.95,99.0
63.96,82.0
63.97,84.0
63.98,99.0
63.99,74.0
64.0,65.0
64.01,72.0
64.02,73.0
64.03,74.0
64.04,85.0
64.05,90.0
64.06,93.0
64.07,82.0
64.08,62.0
64.09,80.0
64.1,94.0
64.11,84.0
64.12,92.0
64.13,77.0
64.14,94.0
64.15,94.0
64.16,79.0
64.17,90.0
64.18,91.0
64.19,78.0
64.2,85.0
64.21,85.0
64.22,87.0
64.23,76.0
64.24,86.0
64.25,83.0
64.26,91.0
64.27,63.0
64.28,101.0
64.29,99.0
64.3,80.0
64.31,93.0
64.32,91.0
64.33,96.0
64.34,80.0
64.35,83.0
64.36,83.0
64.37,68.0
64.38,95.0
64.39,95.0
64.4,91.0
64.41,97.0
64.42,92.0
64.43,75.0
64.44,94.0
64.45,89.0
64.46,83.0
64.47,76.0
64.48,78.0
64.49,93.0
64.5,65.0
64.51,94.0
64.52,68.0
64.53,92.0
64.54,86.0
64.55,70.0
64.56,87.0
64.57,86.0
64.58,85.0
64.59,95.0
64.6,87.0
64.61,108.0
64.62,75.0
64.63,82.0
64.64,75.0
64.65,103.0
64.66,62.0
64.67,76.0
64.68,95.0
64.69,71.0
64.7,84.0
64.71,87.0
64.72,79.0
64.73,90.0
64.74,98.0
64.75,102.0
64.76,93.0
64.77,90.0
64.78,96.0
64.79,86.0
64.8,103.0
64.81,73.0
64.82,100.0
64.83,118.0
64.84,90.0
64.85,86.0
64.86,86.0
64.87,83.0
64.88,93.0
64.89,75.0
64.9,113.0
64.91,88.0
64.92,82.0
64.93,92.0
64.94,85.0
64.95,108.0
64.96,85.0
64.97,99.0
64.98,69.0
64.99,82.0
65.0,73.0
65.01,85.0
65.02,76.0
65.03,90.0
65.04,80.0
65.05,94.0
65.06,76.0
65.07,99.0
65.08,89.0
65.09,87.0
65.1,81.0
65.11,67.0
65.12,81.0
65.13,77.0
65.14,85.0
65.15,90.0
65.16,77.0
65.17,81.0
65.18,88.0
65.19,77.0
65.2,75.0
65.21,85.0
65.22,87.0
65.23,80.0
65.24,87.0
65.25,87.0
65.26,72.0
65.27,104.0
65.28,95.0
65.29,90.0
65.3,83.0
65.31,85.0
65.32,82.0
65.33,79.0
65.34,72.0
65.35,80.0
65.36,77.0
65.37,86.0
65.38,80.0
65.39,75.0
65.4,107.0
65.41,86.0
65.42,90.0
65.43,70.0
65.44,73.0
65.45,79.0
65.46,82.0
65.47,82.0
65.48,86.0
65.49,75.0
65.5,81.0
65.51,82.0
65.52,81.0
65.53,84.0
65.54,86.0
65.55,90.0
65.56,85.0
65.57,83.0
65.58,87.0
65.59,89.0
65.6,88.0
65.61,88.0
65.62,81.0
65.63,72.0
65.64,74.0
65.65,80.0
65.66,83.0
65.67,99.0
65.68,81.0
65.69,82.0
65.7,68.0
65.71,96.0
65.72,68.0
65.73,89.0
65.74,81.0
65.75,80.0
65.76,85.0
65.77,72.0
65.78,79.0
65.79,92.0
65.8,70.0
65.81,83.0
65.82,96.0
65.83,77.0
65.84,73.0
65.85,73.0
65.86,60.0
65.87,83.0
65.88,85.0
65.89,73.0
65.9,87.0
65.91,75.0
65.92,78.0
65.93,92.0
65.94,87.0
65.95,71.0
65.96,64.0
65.97,85.0
65.98,79.0
65.99,88.0
66.0,86.0
66.01,88.0
66.02,81.0
66.03,83.0
66.04,70.0
66.05,77.0
66.06,83.0
66.07,90.0
66.08,90.0
66.09,78.0
66.1,70.0
66.11,94.0
66.12,75.0
66.13,100.0
66.14,75.0
66.15,85.0
66.16,80.0
66.17,92.0
66.18,82.0
66.19,89.0
66.2,80.0
66.21,73.0
66.22,94.0
66.23,74.0
66.24,65.0
66.25,71.0
66.26,76.0
66.27,82.0
66.28,75.0
66.29,75.0
66.3,74.0
66.31,81.0
66.32,88.0
66.33,82.0
66.34,91.0
66.35,71.0
66.36,73.0
66.37,78.0
66.38,93.0
66.39,77.0
66.4,67.0
66.41,86.0
66.42,74.0
66.43,60.0
66.44,87.0
66.45,82.0
66.46,87.0
66.47,88.0
66.48,94.0
66.49,86.0
66.5,86.0
66.51,89.0
66.52,75.0
66.53,91.0
66.54,83.0
66.55,80.0
66.56,84.0
66.57,81.0
66.58,67.0
66.59,85.0
66.6,73.0
66.61,85.0
66.62,77.0
66.63,81.0
66.64,80.0
66.65,97.0
66.66,83.0
66.67,77.0
66.68,86.0
66.69,75.0
66.7,95.0
66.71,64.0
66.72,87.0
66.73,85.0
66.74,80.0
66.75,81.0
66.76,86.0
66.77,88.0
66.78,80.0
66.79,83.0
66.8,86.0
66.81,86.0
66.82,81.0
66.83,77.0
66.84,78.0
66.85,63.0
66.86,92.0
66.87,72.0
66.88,62.0
66.89,81.0
66.9,79.0
66.91,75.0
66.92,78.0
66.93,85.0
66.94,86.0
66.95,86.0
66.96,95.0
66.97,101.0
66.98,75.0
66.99,89.0
67.0,81.0
67.01,81.0
67.02,76.0
67.03,90.0
67.04,80.0
67.05,79.0
67.06,73.0
67.07,88.0
67.08,102.0
67.09,93.0
67.1,71.0
67.11,81.0
67.12,74.0
67.13,76.0
67.14,99.0
67.15,91.0
67.16,75.0
67.17,61.0
67.18,98.0
67.19,91.0
67.2,80.0
67.21,80.0
67.22,61.0
67.23,75.0
67.24,84.0
67.25,77.0
67.26,67.0
67.27,60.0
67.28,74.0
67.29,78.0
67.3,90.0
67.31,86.0
67.32,80.0
67.33,73.0
67.34,96.0
67.35,81.0
67.36,80.0
67.37,75.0
67.38,80.0
67.39,80.0
67.4,64.0
67.41,70.0
67.42,72.0
67.43,79.0
67.44,94.0
67.45,85.0
67.46,75.0
67.47,78.0
67.48,85.0
67.49,90.0
67.5,74.0
67.51,78.0
67.52,86.0
67.53,94.0
67.54,90.0
67.55,85.0
67.56,77.0
67.57,87.0
67.58,90.0
67.59,96.0
67.6,103.0
67.61,85.0
67.62,87.0
67.63,86.0
67.64,90.0
67.65,80.0
67.66,89.0
67.67,83.0
67.68,92.0
67.69,78.0
67.7,87.0
67.71,81.0
67.72,86.0
67.73,95.0
67.74,93.0
67.75,71.0
67.76,70.0
67.77,83.0
67.78,84.0
67.79,75.0
67.8,67.0
67.81,96.0
67.82,69.0
67.83,81.0
67.84,89.0
67.85,74.0
67.86,86.0
67.87,69.0
67.88,91.0
67.89,97.0
67.9,80.0
67.91,88.0
67.92,86.0
67.93,87.0
67.94,88.0
67.95,80.0
67.96,70.0
67.97,88.0
67.98,101.0
67.99,78.0
68.0,92.0
68.01,81.0
68.02,68.0
68.03,96.0
68.04,71.0
68.05,91.0
68.06,81.0
68.07,78.0
68.08,78.0
68.09,74.0
68.1,73.0
68.11,77.0
68.12,84.0
68.13,76.0
68.14,104.0
68.15,66.0
68.16,81.0
68.17,73.0
68.18,86.0
68.19,79.0
68.2,94.0
68.21,77.0
68.22,90.0
68.23,90.0
68.24,76.0
68.25,73.0
68.26,78.0
68.27,94.0
68.28,79.0
68.29,83.0
68.3,83.0
68.31,84.0
68.32,88.0
68.33,82.0
68.34,79.0
68.35,69.0
68.36,95.0
68.37,86.0
68.38,73.0
68.39,89.0
68.4,82.0
68.41,65.0
68.42,88.0
68.43,96.0
68.44,80.0
68.45,89.0
68.46,73.0
68.47,84.0
68.48,67.0
68.49,64.0
68.5,97.0
68.51,92.0
68.52,72.0
68.53,112.0
68.54,92.0
68.55,66.0
68.56,87.0
68.57,93.0
68.58,75.0
68.59,77.0
68.6,80.0
68.61,75.0
68.62,75.0
68.63,79.0
68.64,84.0
68.65,76.0
68.66,71.0
68.67,60.0
68.68,67.0
68.69,72.0
68.7,76.0
68.71,74.0
68.72,88.0
68.73,96.0
68.74,91.0
68.75,78.0
68.76,82.0
68.77,76.0
68.78,90.0
68.79,70.0
68.8,91.0
68.81,93.0
68.82,76.0
68.83,82.0
68.84,84.0
68.85,69.0
68.86,79.0
68.87,86.0
68.88,83.0
68.89,84.0
68.9,78.0
68.91,80.0
68.92,64.0
68.93,96.0
68.94,86.0
68.95,92.0
68.96,100.0
68.97,82.0
68.98,87.0
68.99,91.0
69.0,97.0
69.01,85.0
69.02,77.0
69.03,73.0
69.04,79.0
69.05,83.0
69.06,94.0
69.07,86.0
69.08,81.0
69.09,89.0
69.1,71.0
69.11,103.0
69.12,81.0
69.13,87.0
69.14,75.0
69.15,84.0
69.16,91.0
69.17,87.0
69.18,89.0
69.19,90.0
69.2,85.0
69.21,84.0
69.22,91.0
69.23,83.0
69.24,83.0
69.25,77.0
69.26,71.0
69.27,89.0
69.28,80.0
69.29,93.0
69.3,63.0
69.31,75.0
69.32,79.0
69.33,87.0
69.34,81.0
69.35,96.0
69.36,70.0
69.37,76.0
69.38,91.0
69.39,72.0
69.4,69.0
69.41,73.0
69.42,97.0
69.43,94.0
69.44,80.0
69.45,73.0
69.46,75.0
69.47,71.0
69.48,70.0
69.49,97.0
69.5,98.0
69.51,84.0
69.52,74.0
69.53,93.0
69.54,78.0
69.55,67.0
69.56,90.0
69.57,91.0
69.58,82.0
69.59,95.0
69.6,84.0
69.61,86.0
69.62,73.0
69.63,72.0
69.64,80.0
69.65,88.0
69.66,84.0
69.67,94.0
69.68,75.0
69.69,75.0
69.7,90.0
69.71,80.0
69.72,104.0
69.73,91.0
69.74,87.0
69.75,86.0
69.76,82.0
69.77,80.0
69.78,88.0
69.79,87.0
69.8,76.0
69.81,91.0
69.82,99.0
69.83,72.0
69.84,83.0
69.85,80.0
69.86,86.0
69.87,62.0
69.88,83.0
69.89,80.0
69.9,60.0
69.91,83.0
69.92,71.0
69.93,80.0
69.94,78.0
69.95,85.0
69.96,86.0
69.97,82.0
69.98,74.0
69.99,87.0
70.0,89.0
70.01,97.0
70.02,71.0
70.03,85.0
70.04,78.0
70.05,76.0
70.06,87.0
70.07,81.0
70.08,77.0
70.09,74.0
70.1,96.0
70.11,85.0
70.12,80.0
70.13,79.0
70.14,92.0
70.15,87.0
70.16,91.0
70.17,81.0
70.18,82.0
70.19,84.0
70.2,68.0
70.21,83.0
70.22,69.0
70.23,99.0
70.24,80.0
70.25,82.0
70.26,97.0
70.27,75.0
70.28,77.0
70.29,71.0
70.3,92.0
70.31,69.0
70.32,89.0
70.33,79.0
70.34,80.0
70.35,67.0
70.36,78.0
70.37,75.0
70.38,100.0
70.39,79.0
70.4,87.0
70.41,81.0
70.42,83.0
70.43,85.0
70.44,79.0
70.45,81.0
70.46,82.0
70.47,76.0
70.48,84.0
70.49,75.0
70.5,80.0
70.51,87.0
70.52,77.0
70.53,70.0
70.54,83.0
70.55,80.0
70.56,94.0
70.57,71.0
70.58,75.0
70.59,82.0
70.6,84.0
70.61,77.0
70.62,60.0
70.63,94.0
70.64,70.0
70.65,67.0
70.66,75.0
70.67,83.0
70.68,90.0
70.69,90.0
70.7,72.0
70.71,76.0
70.72,75.0
70.73,62.0
70.74,86.0
70.75,71.0
70.76,82.0
70.77,82.0
70.78,94.0
70.79,86.0
70.8,82.0
70.81,77.0
70.82,81.0
70.83,77.0
70.84,77.0
70.85,78.0
70.86,68.0
70.87,75.0
70.88,96.0
70.89,62.0
70.9,91.0
70.91,74.0
70.92,87.0
70.93,86.0
70.94,69.0
70.95,83.0
70.96,68.0
70.97,81.0
70.98,92.0
70.99,72.0
71.0,81.0
71.01,85.0
71.02,84.0
71.03,74.0
71.04,89.0
71.05,81.0
71.06,74.0
71.07,72.0
71.08,78.0
71.09,103.0
71.1,83.0
71.11,68.0
71.12,66.0
71.13,86.0
71.14,84.0
71.15,88.0
71.16,71.0
71.17,91.0
71.18,79.0
71.19,75.0
71.2,77.0
71.21,93.0
71.22,72.0
71.23,69.0
71.24,91.0
71.25,91.0
71.26,92.0
71.27,74.0
71.28,74.0
71.29,91.0
71.3,74.0
71.31,76.0
71.32,74.0
71.33,78.0
71.34,92.0
71.35,69.0
71.36,81.0
71.37,72.0
71.38,81.0
71.39,72.0
71.4,80.0
71.41,91.0
71.42,55.0
71.43,69.0
71.44,78.0
71.45,76.0
71.46,78.0
71.47,79.0
71.48,78.0
71.49,79.0
71.5,84.0
71.51,86.0
71.52,75.0
71.53,73.0
71.54,85.0
71.55,77.0
71.56,80.0
71.57,105.0
71.58,83.0
71.59,89.0
71.6,66.0
71.61,76.0
71.62,79.0
71.63,72.0
71.64,83.0
71.65,71.0
71.66,86.0
71.67,74.0
71.68,73.0
71.69,68.0
71.7,68.0
71.71,84.0
71.72,72.0
71.73,78.0
71.74,65.0
71.75,88.0
71.76,82.0
71.77,80.0
71.78,84.0
71.79,82.0
71.8,74.0
71.81,88.0
71.82,91.0
71.83,81.0
71.84,86.0
71.85,116.0
71.86,97.0
71.87,73.0
71.88,99.0
71.89,102.0
71.9,94.0
71.91,91.0
71.92,84.0
71.93,82.0
71.94,94.0
71.95,78.0
71.96,73.0
71.97,73.0
71.98,85.0
71.99,84.0
72.0,81.0
72.01,59.0
72.02,82.0
72.03,81.0
72.04,88.0
72.05,82.0
72.06,98.0
72.07,94.0
72.08,83.0
72.09,92.0
72.1,83.0
72.11,94.0
72.12,85.0
72.13,80.0
72.14,87.0
72.15,96.0
72.16,78.0
72.17,74.0
72.18,81.0
72.19,87.0
72.2,96.0
72.21,80.0
72.22,93.0
72.23,74.0
72.24,80.0
72.25,61.0
72.26,77.0
72.27,88.0
72.28,77.0
72.29,92.0
72.3,86.0
72.31,86.0
72.32,80.0
72.33,78.0
72.34,78.0
72.35,86.0
72.36,71.0
72.37,82.0
72.38,77.0
72.39,70.0
72.4,67.0
72.41,83.0
72.42,67.0
72.43,95.0
72.44,79.0
72.45,87.0
72.46,89.0
72.47,83.0
72.48,81.0
72.49,72.0
72.5,71.0
72.51,78.0
72.52,69.0
72.53,62.0
72.54,78.0
72.55,72.0
72.56,69.0
72.57,68.0
72.58,90.0
72.59,85.0
72.6,108.0
72.61,77.0
72.62,78.0
72.63,59.0
72.64,69.0
72.65,93.0
72.66,65.0
72.67,80.0
72.68,83.0
72.69,85.0
72.7,82.0
72.71,69.0
72.72,62.0
72.73,81.0
72.74,82.0
72.75,72.0
72.76,76.0
72.77,71.0
72.78,91.0
72.79,83.0
72.8,84.0
72.81,75.0
72.82,84.0
72.83,78.0
72.84,69.0
72.85,73.0
72.86,68.0
72.87,76.0
72.88,76.0
72.89,87.0
72.9,72.0
72.91,76.0
72.92,87.0
72.93,84.0
72.94,76.0
72.95,90.0
72.96,72.0
72.97,89.0
72.98,99.0
72.99,103.0
73.0,78.0
73.01,70.0
73.02,89.0
73.03,75.0
73.04,79.0
73.05,83.0
73.06,84.0
73.07,82.0
73.08,85.0
73.09,91.0
73.1,85.0
73.11,94.0
73.12,88.0
73.13,90.0
73.14,87.0
73.15,98.0
73.16,83.0
73.17,84.0
73.18,83.0
73.19,84.0
73.2,76.0
73.21,94.0
73.22,79.0
73.23,89.0
73.24,78.0
73.25,91.0
73.26,79.0
73.27,80.0
73.28,78.0
73.29,89.0
73.3,79.0
73.31,85.0
73.32,85.0
73.33,89.0
73.34,93.0
73.35,93.0
73.36,92.0
73.37,80.0
73.38,80.0
73.39,86.0
73.4,65.0
73.41,90.0
73.42,94.0
73.43,86.0
73.44,77.0
73.45,76.0
73.46,79.0
73.47,76.0
73.48,75.0
73.49,79.0
73.5,80.0
73.51,89.0
73.52,73.0
73.53,69.0
73.54,91.0
73.55,62.0
73.56,78.0
73.57,81.0
73.58,64.0
73.59,68.0
73.6,81.0
73.61,82.0
73.62,66.0
73.63,66.0
73.64,75.0
73.65,86.0
73.66,83.0
73.67,79.0
73.68,61.0
73.69,70.0
73.7,65.0
73.71,62.0
73.72,81.0
73.73,79.0
73.74,77.0
73.75,87.0
73.76,77.0
73.77,82.0
73.78,71.0
73.79,75.0
73.8,75.0
73.81,77.0
73.82,77.0
73.83,75.0
73.84,79.0
73.85,61.0
73.86,70.0
73.87,95.0
73.88,86.0
73.89,93.0
73.9,84.0
73.91,66.0
73.92,67.0
73.93,73.0
73.94,70.0
73.95,82.0
73.96,77.0
73.97,69.0
73.98,68.0
73.99,63.0
74.0,73.0
74.01,69.0
74.02,91.0
74.03,70.0
74.04,93.0
74.05,89.0
74.06,86.0
74.07,77.0
74.08,76.0
74.09,78.0
74.1,76.0
74.11,60.0
74.12,73.0
74.13,65.0
74.14,91.0
74.15,84.0
74.16,75.0
74.17,90.0
74.18,86.0
74.19,87.0
74.2,86.0
74.21,99.0
74.22,68.0
74.23,69.0
74.24,70.0
74.25,78.0
74.26,89.0
74.27,65.0
74.28,76.0
74.29,77.0
74.3,85.0
74.31,75.0
74.32,74.0
74.33,80.0
74.34,82.0
74.35,81.0
74.36,78.0
74.37,66.0
74.38,71.0
74.39,67.0
74.4,83.0
74.41,80.0
74.42,62.0
74.43,83.0
74.44,80.0
74.45,74.0
74.46,63.0
74.47,90.0
74.48,70.0
74.49,69.0
74.5,91.0
74.51,64.0
74.52,86.0
74.53,63.0
74.54,89.0
74.55,69.0
74.56,76.0
74.57,71.0
74.58,58.0
74.59,78.0
74.6,74.0
74.61,79.0
74.62,80.0
74.63,89.0
74.64,71.0
74.65,77.0
74.66,94.0
74.67,79.0
74.68,97.0
74.69,87.0
74.7,79.0
74.71,86.0
74.72,75.0
74.73,86.0
74.74,82.0
74.75,86.0
74.76,67.0
74.77,73.0
74.78,81.0
74.79,85.0
74.8,72.0
74.81,81.0
74.82,88.0
74.83,79.0
74.84,84.0
74.85,77.0
74.86,76.0
74.87,61.0
74.88,73.0
74.89,76.0
74.9,92.0
74.91,80.0
74.92,76.0
74.93,73.0
74.94,83.0
74.95,70.0
74.96,80.0
74.97,80.0
74.98,86.0
74.99,79.0
75.0,79.0
75.01,71.0
75.02,63.0
75.03,90.0
75.04,68.0
75.05,89.0
75.06,77.0
75.07,78.0
75.08,60.0
75.09,61.0
75.1,59.0
75.11,72.0
75.12,76.0
75.13,72.0
75.14,72.0
75.15,89.0
75.16,66.0
75.17,80.0
75.18,75.0
75.19,63.0
75.2,83.0
75.21,82.0
75.22,80.0
75.23,72.0
75.24,79.0
75.25,82.0
75.26,74.0
75.27,83.0
75.28,71.0
75.29,77.0
75.3,75.0
75.31,74.0
75.32,86.0
75.33,80.0
75.34,67.0
75.35,87.0
75.36,95.0
75.37,72.0
75.38,80.0
75.39,76.0
75.4,95.0
75.41,74.0
75.42,71.0
75.43,52.0
75.44,80.0
75.45,67.0
75.46,70.0
75.47,79.0
75.48,66.0
75.49,82.0
75.5,89.0
75.51,80.0
75.52,79.0
75.53,83.0
75.54,74.0
75.55,80.0
75.56,79.0
75.57,82.0
75.58,79.0
75.59,67.0
75.6,85.0
75.61,81.0
75.62,76.0
75.63,67.0
75.64,78.0
75.65,85.0
75.66,80.0
75.67,63.0
75.68,76.0
75.69,73.0
75.7,83.0
75.71,67.0
75.72,81.0
75.73,84.0
75.74,69.0
75.75,67.0
75.76,88.0
75.77,67.0
75.78,66.0
75.79,81.0
75.8,75.0
75.81,91.0
75.82,76.0
75.83,71.0
75.84,84.0
75.85,57.0
75.86,82.0
75.87,61.0
75.88,92.0
75.89,72.0
75.9,73.0
75.91,77.0
75.92,74.0
75.93,87.0
75.94,75.0
75.95,79.0
75.96,72.0
75.97,76.0
75.98,73.0
75.99,93.0
76.0,80.0
76.01,74.0
76.02,79.0
76.03,68.0
76.04,85.0
76.05,64.0
76.06,78.0
76.07,51.0
76.08,91.0
76.09,73.0
76.1,70.0
76.11,63.0
76.12,91.0
76.13,68.0
76.14,80.0
76.15,78.0
76.16,81.0
76.17,80.0
76.18,69.0
76.19,60.0
76.2,78.0
76.21,72.0
76.22,70.0
76.23,72.0
76.24,75.0
76.25,75.0
76.26,79.0
76.27,65.0
76.28,77.0
76.29,83.0
76.3,73.0
76.31,70.0
76.32,76.0
76.33,80.0
76.34,76.0
76.35,83.0
76.36,75.0
76.37,70.0
76.38,78.0
76.39,70.0
76.4,85.0
76.41,67.0
76.42,82.0
76.43,59.0
76.44,61.0
76.45,76.0
76.46,69.0
76.47,59.0
76.48,63.0
76.49,66.0
76.5,72.0
76.51,74.0
76.52,71.0
76.53,81.0
76.54,89.0
76.55,81.0
76.56,64.0
76.57,75.0
76.58,68.0
76.59,65.0
76.6,71.0
76.61,72.0
76.62,81.0
76.63,69.0
76.64,83.0
76.65,66.0
76.66,89.0
76.67,85.0
76.68,78.0
76.69,56.0
76.7,91.0
76.71,81.0
76.72,80.0
76.73,81.0
76.74,64.0
76.75,73.0
76.76,76.0
76.77,85.0
76.78,76.0
76.79,78.0
76.8,85.0
76.81,79.0
76.82,69.0
76.83,86.0
76.84,74.0
76.85,72.0
76.86,78.0
76.87,74.0
76.88,83.0
76.89,71.0
76.9,85.0
76.91,77.0
76.92,61.0
76.93,76.0
76.94,66.0
76.95,76.0
76.96,78.0
76.97,100.0
76.98,81.0
76.99,74.0
77.0,87.0
77.01,79.0
77.02,71.0
77.03,86.0
77.04,71.0
77.05,79.0
77.06,70.0
77.07,76.0
77.08,88.0
77.09,70.0
77.1,79.0
77.11,60.0
77.12,83.0
77.13,85.0
77.14,78.0
77.15,69.0
77.16,73.0
77.17,73.0
77.18,75.0
77.19,71.0
77.2,97.0
77.21,79.0
77.22,70.0
77.23,65.0
77.24,76.0
77.25,75.0
77.26,88.0
77.27,81.0
77.28,76.0
77.29,73.0
77.3,69.0
77.31,75.0
77.32,80.0
77.33,73.0
77.34,75.0
77.35,79.0
77.36,89.0
77.37,64.0
77.38,76.0
77.39,88.0
77.4,74.0
77.41,62.0
77.42,76.0
77.43,80.0
77.44,80.0
77.45,73.0
77.46,87.0
77.47,90.0
77.48,78.0
77.49,64.0
77.5,73.0
77.51,63.0
77.52,82.0
77.53,89.0
77.54,74.0
77.55,62.0
77.56,85.0
77.57,62.0
77.58,81.0
77.59,89.0
77.6,60.0
77.61,77.0
77.62,92.0
77.63,78.0
77.64,85.0
77.65,62.0
77.66,73.0
77.67,78.0
77.68,62.0
77.69,68.0
77.7,82.0
77.71,70.0
77.72,55.0
77.73,92.0
77.74,92.0
77.75,72.0
77.76,66.0
77.77,73.0
77.78,91.0
77.79,86.0
77.8,75.0
77.81,64.0
77.82,70.0
77.83,64.0
77.84,70.0
77.85,77.0
77.86,77.0
77.87,77.0
77.88,93.0
77.89,80.0
77.9,71.0
77.91,92.0
77.92,63.0
77.93,82.0
77.94,77.0
77.95,91.0
77.96,83.0
77.97,70.0
77.98,72.0
77.99,84.0
78.0,67.0
78.01,78.0
78.02,71.0
78.03,75.0
78.04,65.0
78.05,64.0
78.06,74.0
78.07,96.0
78.08,81.0
78.09,73.0
78.1,77.0
78.11,63.0
78.12,69.0
78.13,75.0
78.14,78.0
78.15,76.0
78.16,74.0
78.17,73.0
78.18,63.0
78.19,79.0
78.2,61.0
78.21,93.0
78.22,75.0
78.23,74.0
78.24,72.0
78.25,76.0
78.26,85.0
78.27,80.0
78.28,69.0
78.29,71.0
78.3,62.0
78.31,75.0
78.32,68.0
78.33,72.0
78.34,65.0
78.35,67.0
78.36,65.0
78.37,69.0
78.38,71.0
78.39,81.0
78.4,74.0
78.41,72.0
78.42,70.0
78.43,88.0
78.44,92.0
78.45,68.0
78.46,67.0
78.47,79.0
78.48,69.0
78.49,95.0
78.5,84.0
78.51,80.0
78.52,87.0
78.53,88.0
78.54,80.0
78.55,78.0
78.56,75.0
78.57,75.0
78.58,71.0
78.59,64.0
78.6,78.0
78.61,66.0
78.62,64.0
78.63,81.0
78.64,75.0
78.65,72.0
78.66,84.0
78.67,78.0
78.68,84.0
78.69,73.0
78.7,79.0
78.71,75.0
78.72,60.0
78.73,67.0
78.74,78.0
78.75,76.0
78.76,71.0
78.77,75.0
78.78,84.0
78.79,78.0
78.8,81.0
78.81,65.0
78.82,69.0
78.83,64.0
78.84,96.0
78.85,65.0
78.86,72.0
78.87,68.0
78.88,78.0
78.89,69.0
78.9,77.0
78.91,68.0
78.92,71.0
78.93,78.0
78.94,71.0
78.95,77.0
78.96,64.0
78.97,83.0
78.98,69.0
78.99,76.0
79.0,71.0
79.01,66.0
79.02,84.0
79.03,75.0
79.04,81.0
79.05,79.0
79.06,90.0
79.07,66.0
79.08,82.0
79.09,63.0
79.1,82.0
79.11,67.0
79.12,80.0
79.13,69.0
79.14,78.0
79.15,61.0
79.16,76.0
79.17,76.0
79.18,68.0
79.19,76.0
79.2,82.0
79.21,75.0
79.22,78.0
79.23,82.0
79.24,78.0
79.25,68.0
79.26,60.0
79.27,65.0
79.28,78.0
79.29,65.0
79.3,75.0
79.31,65.0
79.32,78.0
79.33,66.0
79.34,65.0
79.35,77.0
79.36,70.0
79.37,68.0
79.38,70.0
79.39,73.0
79.4,67.0
79.41,98.0
79.42,67.0
79.43,82.0
79.44,82.0
79.45,86.0
79.46,74.0
79.47,72.0
79.48,72.0
79.49,72.0
79.5,62.0
79.51,57.0
79.52,80.0
79.53,83.0
79.54,74.0
79.55,81.0
79.56,82.0
79.57,78.0
79.58,75.0
79.59,78.0
79.6,63.0
79.61,70.0
79.62,67.0
79.63,81.0
79.64,67.0
79.65,73.0
79.66,76.0
79.67,70.0
79.68,68.0
79.69,66.0
79.7,69.0
79.71,83.0
79.72,74.0
79.73,71.0
79.74,88.0
79.75,85.0
79.76,63.0
79.77,90.0
79.78,80.0
79.79,102.0
79.8,73.0
79.81,76.0
79.82,91.0
79.83,71.0
79.84,65.0
79.85,79.0
79.86,63.0
79.87,77.0
79.88,87.0
79.89,71.0
79.9,80.0
79.91,69.0
79.92,82.0
79.93,78.0
79.94,84.0
79.95,84.0
79.96,70.0
79.97,74.0
79.98,84.0
79.99,67.0
80.0,73.0
80.01,83.0
80.02,62.0
80.03,86.0
80.04,66.0
80.05,82.0
80.06,76.0
80.07,92.0
80.08,79.0
80.09,77.0
80.1,73.0
80.11,79.0
80.12,76.0
80.13,70.0
80.14,72.0
80.15,76.0
80.16,66.0
80.17,81.0
80.18,77.0
80.19,72.0
80.2,84.0
80.21,79.0
80.22,75.0
80.23,92.0
80.24,67.0
80.25,72.0
80.26,71.0
80.27,69.0
80.28,88.0
80.29,81.0
80.3,77.0
80.31,62.0
80.32,80.0
80.33,70.0
80.34,70.0
80.35,68.0
80.36,70.0
80.37,74.0
80.38,77.0
80.39,63.0
80.4,79.0
80.41,80.0
80.42,76.0
80.43,85.0
80.44,90.0
80.45,83.0
80.46,81.0
80.47,71.0
80.48,82.0
80.49,76.0
80.5,62.0
80.51,74.0
80.52,84.0
80.53,60.0
80.54,82.0
80.55,70.0
80.56,79.0
80.57,70.0
80.58,76.0
80.59,79.0
80.6,78.0
80.61,86.0
80.62,77.0
80.63,79.0
80.64,72.0
80.65,74.0
80.66,83.0
80.67,77.0
80.68,67.0
80.69,81.0
80.7,77.0
80.71,72.0
80.72,61.0
80.73,68.0
80.74,86.0
80.75,65.0
80.76,77.0
80.77,76.0
80.78,74.0
80.79,79.0
80.8,81.0
80.81,62.0
80.82,62.0
80.83,76.0
80.84,79.0
80.85,71.0
80.86,63.0
80.87,84.0
80.88,91.0
80.89,70.0
80.9,79.0
80.91,62.0
80.92,72.0
80.93,78.0
80.94,63.0
80.95,63.0
80.96,68.0
80.97,79.0
80.98,80.0
80.99,65.0
81.0,67.0
81.01,75.0
81.02,76.0
81.03,60.0
81.04,79.0
81.05,77.0
81.06,79.0
81.07,78.0
81.08,77.0
81.09,73.0
81.1,74.0
81.11,70.0
81.12,90.0
81.13,87.0
81.14,71.0
81.15,70.0
81.16,78.0
81.17,65.0
81.18,75.0
81.19,93.0
81.2,60.0
81.21,82.0
81.22,72.0
81.23,78.0
81.24,90.0
81.25,76.0
81.26,70.0
81.27,62.0
81.28,73.0
81.29,76.0
81.3,71.0
81.31,79.0
81.32,76.0
81.33,82.0
81.34,74.0
81.35,67.0
81.36,63.0
81.37,60.0
81.38,57.0
81.39,92.0
81.4,56.0
81.41,77.0
81.42,78.0
81.43,69.0
81.44,64.0
81.45,55.0
81.46,78.0
81.47,74.0
81.48,81.0
81.49,89.0
81.5,83.0
81.51,69.0
81.52,79.0
81.53,66.0
81.54,78.0
81.55,80.0
81.56,72.0
81.57,78.0
81.58,75.0
81.59,87.0
81.6,89.0
81.61,79.0
81.62,91.0
81.63,83.0
81.64,73.0
81.65,60.0
81.66,60.0
81.67,85.0
81.68,75.0
81.69,85.0
81.7,69.0
81.71,68.0
81.72,65.0
81.73,70.0
81.74,74.0
81.75,90.0
81.76,60.0
81.77,83.0
81.78,60.0
81.79,64.0
81.8,76.0
81.81,89.0
81.82,75.0
81.83,88.0
81.84,72.0
81.85,73.0
81.86,79.0
81.87,66.0
81.88,66.0
81.89,72.0
81.9,80.0
81.91,69.0
81.92,72.0
81.93,91.0
81.94,80.0
81.95,77.0
81.96,86.0
81.97,71.0
81.98,66.0
81.99,57.0
82.0,73.0
82.01,80.0
82.02,77.0
82.03,74.0
82.04,71.0
82.05,70.0
82.06,72.0
82.07,69.0
82.08,81.0
82.09,74.0
82.1,67.0
82.11,67.0
82.12,70.0
82.13,63.0
82.14,67.0
82.15,69.0
82.16,74.0
82.17,87.0
82.18,73.0
82.19,65.0
82.2,79.0
82.21,57.0
82.22,88.0
82.23,64.0
82.24,72.0
82.25,70.0
82.26,66.0
82.27,81.0
82.28,74.0
82.29,77.0
82.3,77.0
82.31,73.0
82.32,68.0
82.33,78.0
82.34,59.0
82.35,78.0
82.36,67.0
82.37,78.0
82.38,87.0
82.39,64.0
82.4,86.0
82.41,74.0
82.42,60.0
82.43,79.0
82.44,74.0
82.45,72.0
82.46,69.0
82.47,77.0
82.48,99.0
82.49,61.0
82.5,68.0
82.51,81.0
82.52,55.0
82.53,56.0
82.54,60.0
82.55,75.0
82.56,89.0
82.57,69.0
82.58,81.0
82.59,59.0
82.6,79.0
82.61,69.0
82.62,72.0
82.63,72.0
82.64,79.0
82.65,90.0
82.66,81.0
82.67,68.0
82.68,70.0
82.69,82.0
82.7,70.0
82.71,82.0
82.72,84.0
82.73,75.0
82.74,84.0
82.75,77.0
82.76,91.0
82.77,91.0
82.78,60.0
82.79,76.0
82.8,64.0
82.81,71.0
82.82,86.0
82.83,73.0
82.84,73.0
82.85,77.0
82.86,65.0
82.87,76.0
82.88,71.0
82.89,74.0
82.9,66.0
82.91,78.0
82.92,64.0
82.93,66.0
82.94,70.0
82.95,75.0
82.96,72.0
82.97,77.0
82.98,73.0
82.99,66.0
83.0,79.0
83.01,72.0
83.02,75.0
83.03,71.0
83.04,80.0
83.05,80.0
83.06,69.0
83.07,70.0
83.08,67.0
83.09,59.0
83.1,65.0
83.11,58.0
83.12,68.0
83.13,90.0
83.14,75.0
83.15,81.0
83.16,68.0
83.17,70.0
83.18,70.0
83.19,79.0
83.2,71.0
83.21,71.0
83.22,61.0
83.23,72.0
83.24,75.0
83.25,85.0
83.26,76.0
83.27,92.0
83.28,79.0
83.29,77.0
83.3,72.0
83.31,80.0
83.32,92.0
83.33,68.0
83.34,71.0
83.35,73.0
83.36,55.0
83.37,74.0
83.38,73.0
83.39,87.0
83.4,83.0
83.41,80.0
83.42,76.0
83.43,52.0
83.44,76.0
83.45,72.0
83.46,59.0
83.47,70.0
83.48,79.0
83.49,67.0
83.5,65.0
83.51,86.0
83.52,81.0
83.53,76.0
83.54,78.0
83.55,81.0
83.56,77.0
83.57,73.0
83.58,61.0
83.59,81.0
83.6,64.0
83.61,78.0
83.62,75.0
83.63,68.0
83.64,81.0
83.65,74.0
83.66,59.0
83.67,83.0
83.68,75.0
83.69,72.0
83.7,93.0
83.71,64.0
83.72,64.0
83.73,76.0
83.74,81.0
83.75,68.0
83.76,68.0
83.77,61.0
83.78,70.0
83.79,63.0
83.8,70.0
83.81,73.0
83.82,71.0
83.83,80.0
83.84,77.0
83.85,76.0
83.86,61.0
83.87,71.0
83.88,76.0
83.89,51.0
83.9,66.0
83.91,65.0
83.92,85.0
83.93,80.0
83.94,58.0
83.95,76.0
83.96,80.0
83.97,78.0
83.98,77.0
83.99,66.0
84.0,78.0
84.01,64.0
84.02,71.0
84.03,68.0
84.04,78.0
84.05,84.0
84.06,71.0
84.07,68.0
84.08,76.0
84.09,78.0
84.1,88.0
84.11,69.0
84.12,66.0
84.13,84.0
84.14,65.0
84.15,88.0
84.16,68.0
84.17,68.0
84.18,81.0
84.19,64.0
84.2,89.0
84.21,90.0
84.22,74.0
84.23,81.0
84.24,58.0
84.25,67.0
84.26,66.0
84.27,60.0
84.28,73.0
84.29,73.0
84.3,81.0
84.31,84.0
84.32,73.0
84.33,81.0
84.34,70.0
84.35,66.0
84.36,77.0
84.37,73.0
84.38,79.0
84.39,56.0
84.4,86.0
84.41,77.0
84.42,78.0
84.43,83.0
84.44,68.0
84.45,72.0
84.46,56.0
84.47,98.0
84.48,75.0
84.49,78.0
84.5,70.0
84.51,67.0
84.52,63.0
84.53,74.0
84.54,76.0
84.55,49.0
84.56,81.0
84.57,82.0
84.58,68.0
84.59,76.0
84.6,80.0
84.61,76.0
84.62,69.0
84.63,87.0
84.64,75.0
84.65,80.0
84.66,69.0
84.67,75.0
84.68,69.0
84.69,67.0
84.7,72.0
84.71,76.0
84.72,79.0
84.73,85.0
84.74,65.0
84.75,66.0
84.76,62.0
84.77,71.0
84.78,80.0
84.79,77.0
84.8,50.0
84.81,92.0
84.82,76.0
84.83,69.0
84.84,75.0
84.85,88.0
84.86,74.0
84.87,63.0
84.88,63.0
84.89,64.0
84.9,60.0
84.91,55.0
84.92,78.0
84.93,86.0
84.94,84.0
84.95,72.0
84.96,77.0
84.97,64.0
84.98,72.0
84.99,55.0
85.0,71.0
85.01,66.0
85.02,61.0
85.03,71.0
85.04,71.0
85.05,51.0
85.06,88.0
85.07,64.0
85.08,74.0
85.09,69.0
85.1,67.0
85.11,74.0
85.12,75.0
85.13,74.0
85.14,74.0
85.15,71.0
85.16,91.0
85.17,63.0
85.18,70.0
85.19,66.0
85.2,62.0
85.21,61.0
85.22,78.0
85.23,72.0
85.24,83.0
85.25,77.0
85.26,70.0
85.27,72.0
85.28,70.0
85.29,80.0
85.3,71.0
85.31,54.0
85.32,73.0
85.33,83.0
85.34,92.0
85.35,84.0
85.36,91.0
85.37,73.0
85.38,68.0
85.39,67.0
85.4,79.0
85.41,78.0
85.42,61.0
85.43,57.0
85.44,73.0
85.45,75.0
85.46,72.0
85.47,52.0
85.48,74.0
85.49,83.0
85.5,71.0
85.51,61.0
85.52,69.0
85.53,81.0
85.54,64.0
85.55,90.0
85.56,61.0
85.57,79.0
85.58,70.0
85.59,73.0
85.6,85.0
85.61,85.0
85.62,75.0
85.63,57.0
85.64,89.0
85.65,72.0
85.66,81.0
85.67,75.0
85.68,64.0
85.69,84.0
85.7,74.0
85.71,76.0
85.72,85.0
85.73,59.0
85.74,48.0
85.75,81.0
85.76,74.0
85.77,85.0
85.78,59.0
85.79,76.0
85.8,77.0
85.81,89.0
85.82,72.0
85.83,60.0
85.84,56.0
85.85,60.0
85.86,67.0
85.87,63.0
85.88,76.0
85.89,71.0
85.9,76.0
85.91,59.0
85.92,75.0
85.93,56.0
85.94,68.0
85.95,58.0
85.96,76.0
85.97,75.0
85.98,70.0
85.99,64.0
86.0,65.0
86.01,64.0
86.02,62.0
86.03,62.0
86.04,78.0
86.05,76.0
86.06,72.0
86.07,70.0
86.08,61.0
86.09,75.0
86.1,72.0
86.11,84.0
86.12,60.0
86.13,66.0
86.14,69.0
86.15,75.0
86.16,63.0
86.17,78.0
86.18,78.0
86.19,80.0
86.2,59.0
86.21,83.0
86.22,60.0
86.23,82.0
86.24,73.0
86.25,80.0
86.26,70.0
86.27,76.0
86.28,85.0
86.29,52.0
86.3,66.0
86.31,79.0
86.32,76.0
86.33,72.0
86.34,70.0
86.35,62.0
86.36,55.0
86.37,74.0
86.38,63.0
86.39,67.0
86.4,59.0
86.41,57.0
86.42,81.0
86.43,72.0
86.44,74.0
86.45,72.0
86.46,77.0
86.47,53.0
86.48,77.0
86.49,58.0
86.5,75.0
86.51,77.0
86.52,81.0
86.53,68.0
86.54,80.0
86.55,81.0
86.56,71.0
86.57,76.0
86.58,71.0
86.59,75.0
86.6,75.0
86.61,87.0
86.62,64.0
86.63,55.0
86.64,74.0
86.65,77.0
86.66,66.0
86.67,76.0
86.68,78.0
86.69,85.0
86.7,62.0
86.71,72.0
86.72,68.0
86.73,72.0
86.74,67.0
86.75,79.0
86.76,94.0
86.77,74.0
86.78,73.0
86.79,76.0
86.8,63.0
86.81,69.0
86.82,73.0
86.83,70.0
86.84,62.0
86.85,77.0
86.86,65.0
86.87,76.0
86.88,55.0
86.89,86.0
86.9,64.0
86.91,71.0
86.92,66.0
86.93,82.0
86.94,75.0
86.95,80.0
86.96,65.0
86.97,67.0
86.98,69.0
86.99,58.0
87.0,80.0
87.01,63.0
87.02,84.0
87.03,69.0
87.04,56.0
87.05,81.0
87.06,91.0
87.07,69.0
87.08,85.0
87.09,61.0
87.1,74.0
87.11,67.0
87.12,71.0
87.13,82.0
87.14,63.0
87.15,78.0
87.16,59.0
87.17,73.0
87.18,70.0
87.19,72.0
87.2,71.0
87.21,72.0
87.22,88.0
87.23,57.0
87.24,70.0
87.25,65.0
87.26,85.0
87.27,64.0
87.28,74.0
87.29,70.0
87.3,84.0
87.31,72.0
87.32,72.0
87.33,72.0
87.34,74.0
87.35,59.0
87.36,67.0
87.37,86.0
87.38,56.0
87.39,67.0
87.4,65.0
87.41,71.0
87.42,80.0
87.43,57.0
87.44,77.0
87.45,61.0
87.46,78.0
87.47,86.0
87.48,78.0
87.49,84.0
87.5,67.0
87.51,76.0
87.52,78.0
87.53,72.0
87.54,75.0
87.55,71.0
87.56,69.0
87.57,56.0
87.58,71.0
87.59,62.0
87.6,72.0
87.61,63.0
87.62,68.0
87.63,70.0
87.64,74.0
87.65,63.0
87.66,71.0
87.67,86.0
87.68,73.0
87.69,66.0
87.7,77.0
87.71,79.0
87.72,67.0
87.73,70.0
87.74,81.0
87.75,64.0
87.76,74.0
87.77,68.0
87.78,81.0
87.79,65.0
87.8,63.0
87.81,79.0
87.82,73.0
87.83,67.0
87.84,79.0
87.85,72.0
87.86,62.0
87.87,62.0
87.88,66.0
87.89,64.0
87.9,70.0
87.91,83.0
87.92,62.0
87.93,81.0
87.94,68.0
87.95,69.0
87.96,72.0
87.97,61.0
87.98,68.0
87.99,78.0
88.0,69.0
88.01,74.0
88.02,67.0
88.03,77.0
88.04,77.0
88.05,60.0
88.06,81.0
88.07,71.0
88.08,84.0
88.09,76.0
88.1,73.0
88.11,80.0
88.12,71.0
88.13,63.0
88.14,70.0
88.15,93.0
88.16,66.0
88.17,73.0
88.18,65.0
88.19,77.0
88.2,63.0
88.21,65.0
88.22,73.0
88.23,73.0
88.24,83.0
88.25,77.0
88.26,75.0
88.27,82.0
88.28,80.0
88.29,76.0
88.3,76.0
88.31,57.0
88.32,80.0
88.33,51.0
88.34,77.0
88.35,78.0
88.36,69.0
88.37,70.0
88.38,78.0
88.39,71.0
88.4,75.0
88.41,81.0
88.42,83.0
88.43,68.0
88.44,74.0
88.45,61.0
88.46,80.0
88.47,81.0
88.48,70.0
88.49,86.0
88.5,68.0
88.51,67.0
88.52,83.0
88.53,86.0
88.54,73.0
88.55,69.0
88.56,65.0
88.57,81.0
88.58,88.0
88.59,84.0
88.6,68.0
88.61,66.0
88.62,69.0
88.63,66.0
88.64,66.0
88.65,77.0
88.66,83.0
88.67,71.0
88.68,70.0
88.69,78.0
88.7,71.0
88.71,83.0
88.72,76.0
88.73,76.0
88.74,73.0
88.75,52.0
88.76,85.0
88.77,74.0
88.78,70.0
88.79,66.0
88.8,72.0
88.81,69.0
88.82,76.0
88.83,94.0
88.84,85.0
88.85,72.0
88.86,67.0
88.87,81.0
88.88,64.0
88.89,62.0
88.9,67.0
88.91,63.0
88.92,72.0
88.93,66.0
88.94,75.0
88.95,67.0
88.96,73.0
88.97,72.0
88.98,70.0
88.99,67.0
89.0,77.0
89.01,66.0
89.02,74.0
89.03,64.0
89.04,67.0
89.05,61.0
89.06,83.0
89.07,79.0
89.08,63.0
89.09,70.0
89.1,60.0
89.11,79.0
89.12,65.0
89.13,74.0
89.14,77.0
89.15,79.0
89.16,73.0
89.17,66.0
89.18,73.0
89.19,77.0
89.2,83.0
89.21,71.0
89.22,68.0
89.23,79.0
89.24,66.0
89.25,93.0
89.26,76.0
89.27,59.0
89.28,62.0
89.29,68.0
89.3,69.0
89.31,68.0
89.32,61.0
89.33,74.0
89.34,75.0
89.35,68.0
89.36,88.0
89.37,69.0
89.38,70.0
89.39,74.0
89.4,63.0
89.41,82.0
89.42,71.0
89.43,62.0
89.44,83.0
89.45,65.0
89.46,71.0
89.47,70.0
89.48,69.0
89.49,56.0
89.5,68.0
89.51,68.0
89.52,68.0
89.53,69.0
89.54,66.0
89.55,76.0
89.56,73.0
89.57,66.0
89.58,75.0
89.59,77.0
89.6,72.0
89.61,72.0
89.62,70.0
89.63,71.0
89.64,82.0
89.65,68.0
89.66,70.0
89.67,64.0
89.68,64.0
89.69,77.0
89.7,73.0
89.71,87.0
89.72,77.0
89.73,65.0
89.74,59.0
89.75,80.0
89.76,61.0
89.77,64.0
89.78,75.0
89.79,57.0
89.8,77.0
89.81,74.0
89.82,64.0
89.83,72.0
89.84,85.0
89.85,62.0
89.86,90.0
89.87,65.0
89.88,60.0
89.89,66.0
89.9,65.0
89.91,51.0
89.92,74.0
89.93,69.0
89.94,78.0
89.95,75.0
89.96,84.0
89.97,78.0
89.98,71.0
89.99,55.0
90.0,67.0
