angle,intensity
5.0,44.0
5.01,60.0
5.02,47.0
5.03,61.0
5.04,63.0
5.05,75.0
5.06,53.0
5.07,63.0
5.08,54.0
5.09,63.0
5.1,55.0
5.11,60.0
5.12,68.0
5.13,61.0
5.14,53.0
5.15,62.0
5.16,55.0
5.17,59.0
5.18,80.0
5.19,47.0
5.2,68.0
5.21,67.0
5.22,48.0
5.23,63.0
5.24,55.0
5.25,64.0
5.26,68.0
5.27,55.0
5.28,60.0
5.29,56.0
5.3,70.0
5.31,51.0
5.32,54.0
5.33,49.0
5.34,61.0
5.35,62.0
5.36,69.0
5.37,55.0
5.38,53.0
5.39,65.0
5.4,68.0
5.41,60.0
5.42,59.0
5.43,48.0
5.44,55.0
5.45,66.0
5.46,72.0
5.47,66.0
5.48,64.0
5.49,67.0
5.5,65.0
5.51,72.0
5.52,62.0
5.53,63.0
5.54,62.0
5.55,52.0
5.56,63.0
5.57,57.0
5.58,51.0
5.59,81.0
5.6,60.0
5.61,66.0
5.62,50.0
5.63,61.0
5.64,50.0
5.65,57.0
5.66,57.0
5.67,60.0
5.68,74.0
5.69,54.0
5.7,68.0
5.71,52.0
5.72,65.0
5.73,46.0
5.74,69.0
5.75,70.0
5.76,64.0
5.77,57.0
5.78,46.0
5.79,69.0
5.8,71.0
5.81,61.0
5.82,57.0
5.83,74.0
5.84,60.0
5.85,56.0
5.86,72.0
5.87,73.0
5.88,66.0
5.89,64.0
5.9,53.0
5.91,56.0
5.92,57.0
5.93,62.0
5.94,62.0
5.95,74.0
5.96,57.0
5.97,66.0
5.98,61.0
5.99,57.0
6.0,65.0
6.01,55.0
6.02,76.0
6.03,59.0
6.04,62.0
6.05,56.0
6.06,50.0
6.07,77.0
6.08,64.0
6.09,53.0
6.1,64.0
6.11,45.0
6.12,58.0
6.13,61.0
6.14,51.0
6.15,63.0
6.16,63.0
6.17,87.0
6.18,63.0
6.19,56.0
6.2,69.0
6.21,79.0
6.22,77.0
6.23,65.0
6.24,72.0
6.25,69.0
6.26,61.0
6.27,74.0
6.28,59.0
6.29,59.0
6.3,57.0
6.31,77.0
6.32,76.0
6.33,64.0
6.34,74.0
6.35,58.0
6.36,73.0
6.37,73.0
6.38,58.0
6.39,63.0
6.4,63.0
6.41,65.0
6.42,75.0
6.43,78.0
6.44,78.0
6.45,71.0
6.46,53.0
6.47,60.0
6.48,62.0
6.49,53.0
6.5,62.0
6.51,62.0
6.52,84.0
6.53,56.0
6.54,61.0
6.55,58.0
6.56,67.0
6.57,57.0
6.58,68.0
6.59,69.0
6.6,49.0
6.61,67.0
6.62,67.0
6.63,67.0
6.64,68.0
6.65,75.0
6.66,73.0
6.67,77.0
6.68,64.0
6.69,67.0
6.7,65.0
6.71,72.0
6.72,86.0
6.73,79.0
6.74,64.0
6.75,70.0
6.76,77.0
6.77,65.0
6.78,64.0
6.79,68.0
6.8,74.0
6.81,73.0
6.82,61.0
6.83,65.0
6.84,67.0
6.85,67.0
6.86,79.0
6.87,76.0
6.88,54.0
6.89,63.0
6.9,66.0
6.91,66.0
6.92,56.0
6.93,60.0
6.94,63.0
6.95,66.0
6.96,79.0
6.97,78.0
6.98,84.0
6.99,70.0
7.0,50.0
7.01,65.0
7.02,53.0
7.03,69.0
7.04,95.0
7.05,76.0
7.06,70.0
7.07,69.0
7.08,68.0
7.09,66.0
7.1,61.0
7.11,56.0
7.12,69.0
7.13,75.0
7.14,92.0
7.15,77.0
7.16,66.0
7.17,60.0
7.18,77.0
7.19,62.0
7.2,80.0
7.21,89.0
7.22,67.0
7.23,59.0
7.24,71.0
7.25,75.0
7.26,60.0
7.27,54.0
7.28,65.0
7.29,70.0
7.3,78.0
7.31,75.0
7.32,84.0
7.33,75.0
7.34,66.0
7.35,67.0
7.36,71.0
7.37,74.0
7.38,59.0
7.39,59.0
7.4,65.0
7.41,80.0
7.42,65.0
7.43,64.0
7.44,61.0
7.45,72.0
7.46,57.0
7.47,73.0
7.48,64.0
7.49,83.0
7.5,59.0
7.51,64.0
7.52,81.0
7.53,76.0
7.54,65.0
7.55,74.0
7.56,79.0
7.57,78.0
7.58,64.0
7.59,62.0
7.6,60.0
7.61,69.0
7.62,73.0
7.63,88.0
7.64,69.0
7.65,69.0
7.66,85.0
7.67,71.0
7.68,58.0
7.69,56.0
7.7,65.0
7.71,67.0
7.72,67.0
7.73,74.0
7.74,66.0
7.75,83.0
7.76,65.0
7.77,69.0
7.78,68.0
7.79,66.0
7.8,84.0
7.81,68.0
7.82,65.0
7.83,71.0
7.84,67.0
7.85,67.0
7.86,77.0
7.87,89.0
7.88,78.0
7.89,65.0
7.9,76.0
7.91,65.0
7.92,75.0
7.93,79.0
7.94,64.0
7.95,79.0
7.96,60.0
7.97,62.0
7.98,74.0
7.99,79.0
8.0,61.0
8.01,57.0
8.02,64.0
8.03,61.0
8.04,70.0
8.05,70.0
8.06,62.0
8.07,81.0
8.08,77.0
8.09,51.0
8.1,62.0
8.11,60.0
8.12,50.0
8.13,70.0
8.14,64.0
8.15,79.0
8.16,63.0
8.17,72.0
8.18,60.0
8.19,63.0
8.2,77.0
8.21,92.0
8.22,64.0
8.23,68.0
8.24,70.0
8.25,84.0
8.26,74.0
8.27,84.0
8.28,51.0
8.29,69.0
8.3,78.0
8.31,84.0
8.32,65.0
8.33,65.0
8.34,53.0
8.35,85.0
8.36,62.0
8.37,74.0
8.38,60.0
8.39,77.0
8.4,72.0
8.41,77.0
8.42,55.0
8.43,72.0
8.44,81.0
8.45,71.0
8.46,66.0
8.47,65.0
8.48,58.0
8.49,71.0
8.5,70.0
8.51,60.0
8.52,66.0
8.53,80.0
8.54,63.0
8.55,71.0
8.56,74.0
8.57,74.0
8.58,72.0
8.59,64.0
8.6,70.0
8.61,83.0
8.62,71.0
8.63,57.0
8.64,62.0
8.65,66.0
8.66,76.0
8.67,61.0
8.68,64.0
8.69,78.0
8.7,81.0
8.71,77.0
8.72,86.0
8.73,89.0
8.74,62.0
8.75,67.0
8.76,65.0
8.77,61.0
8.78,54.0
8.79,84.0
8.8,58.0
8.81,59.0
8.82,72.0
8.83,69.0
8.84,69.0
8.85,76.0
8.86,58.0
8.87,68.0
8.88,53.0
8.89,82.0
8.9,77.0
8.91,65.0
8.92,64.0
8.93,67.0
8.94,74.0
8.95,61.0
8.96,58.0
8.97,83.0
8.98,72.0
8.99,60.0
9.0,57.0
9.01,74.0
9.02,56.0
9.03,55.0
9.04,67.0
9.05,67.0
9.06,58.0
9.07,66.0
9.08,81.0
9.09,68.0
9.1,66.0
9.11,62.0
9.12,67.0
9.13,59.0
9.14,63.0
9.15,56.0
9.16,72.0
9.17,67.0
9.18,50.0
9.19,58.0
9.2,62.0
9.21,57.0
9.22,65.0
9.23,77.0
9.24,72.0
9.25,61.0
9.26,64.0
9.27,70.0
9.28,62.0
9.29,74.0
9.3,74.0
9.31,71.0
9.32,64.0
9.33,65.0
9.34,70.0
9.35,66.0
9.36,75.0
9.37,55.0
9.38,65.0
9.39,62.0
9.4,87.0
9.41,65.0
9.42,68.0
9.43,77.0
9.44,62.0
9.45,89.0
9.46,53.0
9.47,76.0
9.48,71.0
9.49,55.0
9.5,68.0
9.51,61.0
9.52,76.0
9.53,72.0
9.54,71.0
9.55,87.0
9.56,71.0
9.57,68.0
9.58,70.0
9.59,71.0
9.6,64.0
9.61,65.0
9.62,71.0
9.63,55.0
9.64,66.0
9.65,62.0
9.66,58.0
9.67,75.0
9.68,56.0
9.69,60.0
9.7,74.0
9.71,64.0
9.72,66.0
9.73,91.0
9.74,56.0
9.75,86.0
9.76,78.0
9.77,66.0
9.78,66.0
9.79,84.0
9.8,59.0
9.81,75.0
9.82,74.0
9.83,63.0
9.84,71.0
9.85,83.0
9.86,57.0
9.87,62.0
9.88,81.0
9.89,80.0
9.9,60.0
9.91,64.0
9.92,72.0
9.93,79.0
9.94,50.0
9.95,60.0
9.96,61.0
9.97,64.0
9.98,72.0
9.99,70.0
10.0,60.0
10.01,63.0
10.02,71.0
10.03,77.0
10.04,83.0
10.05,80.0
10.06,76.0
10.07,71.0
10.08,74.0
10.09,70.0
10.1,76.0
10.11,61.0
10.12,67.0
10.13,81.0
10.14,64.0
10.15,58.0
10.16,63.0
10.17,96.0
10.18,71.0
10.19,76.0
10.2,74.0
10.21,71.0
10.22,51.0
10.23,79.0
10.24,82.0
10.25,69.0
10.26,62.0
10.27,71.0
10.28,58.0
10.29,68.0
10.3,69.0
10.31,70.0
10.32,72.0
10.33,75.0
10.34,68.0
10.35,74.0
10.36,76.0
10.37,66.0
10.38,55.0
10.39,85.0
10.4,53.0
10.41,68.0
10.42,58.0
10.43,66.0
10.44,61.0
10.45,64.0
10.46,67.0
10.47,75.0
10.48,83.0
10.49,69.0
10.5,59.0
10.51,58.0
10.52,71.0
10.53,70.0
10.54,74.0
10.55,66.0
10.56,58.0
10.57,61.0
10.58,81.0
10.59,69.0
10.6,72.0
10.61,63.0
10.62,69.0
10.63,58.0
10.64,73.0
10.65,77.0
10.66,77.0
10.67,78.0
10.68,60.0
10.69,67.0
10.7,75.0
10.71,56.0
10.72,60.0
10.73,65.0
10.74,81.0
10.75,66.0
10.76,82.0
10.77,74.0
10.78,87.0
10.79,72.0
10.8,64.0
10.81,68.0
10.82,62.0
10.83,65.0
10.84,81.0
10.85,67.0
10.86,68.0
10.87,80.0
10.88,75.0
10.89,66.0
10.9,62.0
10.91,77.0
10.92,81.0
10.93,67.0
10.94,62.0
10.95,69.0
10.96,76.0
10.97,62.0
10.98,49.0
10.99,66.0
11.0,61.0
11.01,59.0
11.02,66.0
11.03,79.0
11.04,58.0
11.05,83.0
11.06,54.0
11.07,64.0
11.08,63.0
11.09,69.0
11.1,82.0
11.11,64.0
11.12,65.0
11.13,78.0
11.14,60.0
11.15,74.0
11.16,81.0
11.17,61.0
11.18,63.0
11.19,77.0
11.2,58.0
11.21,66.0
11.22,70.0
11.23,52.0
11.24,77.0
11.25,67.0
11.26,65.0
11.27,70.0
11.28,69.0
11.29,70.0
11.3,69.0
11.31,69.0
11.32,63.0
11.33,65.0
11.34,72.0
11.35,65.0
11.36,72.0
11.37,67.0
11.38,61.0
11.39,63.0
11.4,63.0
11.41,70.0
11.42,73.0
11.43,67.0
11.44,68.0
11.45,82.0
11.46,80.0
11.47,68.0
11.48,69.0
11.49,73.0
11.5,58.0
11.51,58.0
11.52,68.0
11.53,72.0
11.54,65.0
11.55,89.0
11.56,67.0
11.57,78.0
11.58,73.0
11.59,72.0
11.6,76.0
11.61,63.0
11.62,82.0
11.63,72.0
11.64,64.0
11.65,73.0
11.66,74.0
11.67,80.0
11.68,79.0
11.69,75.0
11.7,84.0
11.71,66.0
11.72,82.0
11.73,84.0
11.74,66.0
11.75,82.0
11.76,71.0
11.77,79.0
11.78,72.0
11.79,72.0
11.8,73.0
11.81,64.0
11.82,77.0
11.83,65.0
11.84,81.0
11.85,76.0
11.86,63.0
11.87,65.0
11.88,69.0
11.89,79.0
11.9,68.0
11.91,67.0
11.92,74.0
11.93,70.0
11.94,86.0
11.95,67.0
11.96,77.0
11.97,68.0
11.98,80.0
11.99,53.0
12.0,68.0
12.01,76.0
12.02,64.0
12.03,64.0
12.04,65.0
12.05,59.0
12.06,69.0
12.07,78.0
12.08,76.0
12.09,81.0
12.1,60.0
12.11,71.0
12.12,75.0
12.13,80.0
12.14,67.0
12.15,66.0
12.16,71.0
12.17,69.0
12.18,60.0
12.19,61.0
12.2,84.0
12.21,74.0
12.22,74.0
12.23,67.0
12.24,70.0
12.25,61.0
12.26,69.0
12.27,59.0
12.28,72.0
12.29,96.0
12.3,64.0
12.31,75.0
12.32,59.0
12.33,70.0
12.34,57.0
12.35,55.0
12.36,73.0
12.37,68.0
12.38,80.0
12.39,72.0
12.4,69.0
12.41,63.0
12.42,76.0
12.43,93.0
12.44,61.0
12.45,62.0
12.46,71.0
12.47,78.0
12.48,67.0
12.49,81.0
12.5,64.0
12.51,75.0
12.52,83.0
12.53,86.0
12.54,58.0
12.55,73.0
12.56,74.0
12.57,78.0
12.58,68.0
12.59,58.0
12.6,74.0
12.61,58.0
12.62,85.0
12.63,93.0
12.64,72.0
12.65,67.0
12.66,74.0
12.67,65.0
12.68,79.0
12.69,60.0
12.7,65.0
12.71,75.0
12.72,87.0
12.73,67.0
12.74,71.0
12.75,69.0
12.76,75.0
12.77,72.0
12.78,64.0
12.79,67.0
12.8,62.0
12.81,63.0
12.82,80.0
12.83,69.0
12.84,69.0
12.85,76.0
12.86,73.0
12.87,72.0
12.88,68.0
12.89,71.0
12.9,60.0
12.91,75.0
12.92,57.0
12.93,54.0
12.94,68.0
12.95,64.0
12.96,92.0
12.97,71.0
12.98,82.0
12.99,62.0
13.0,76.0
13.01,71.0
13.02,78.0
13.03,82.0
13.04,68.0
13.05,77.0
13.06,62.0
13.07,57.0
13.08,58.0
13.09,63.0
13.1,72.0
13.11,69.0
13.12,63.0
13.13,82.0
13.14,54.0
13.15,79.0
13.16,74.0
13.17,81.0
13.18,77.0
13.19,68.0
13.2,57.0
13.21,76.0
13.22,64.0
13.23,79.0
13.24,80.0
13.25,83.0
13.26,61.0
13.27,59.0
13.28,66.0
13.29,65.0
13.3,56.0
13.31,66.0
13.32,59.0
13.33,73.0
13.34,75.0
13.35,54.0
13.36,72.0
13.37,60.0
13.38,71.0
13.39,76.0
13.4,71.0
13.41,81.0
13.42,75.0
13.43,60.0
13.44,62.0
13.45,52.0
13.46,66.0
13.47,57.0
13.48,81.0
13.49,61.0
13.5,80.0
13.51,54.0
13.52,66.0
13.53,57.0
13.54,65.0
13.55,69.0
13.56,66.0
13.57,65.0
13.58,62.0
13.59,58.0
13.6,41.0
13.61,79.0
13.62,71.0
13.63,64.0
13.64,70.0
13.65,62.0
13.66,66.0
13.67,77.0
13.68,69.0
13.69,85.0
13.7,68.0
13.71,82.0
13.72,84.0
13.73,76.0
13.74,56.0
13.75,66.0
13.76,60.0
13.77,70.0
13.78,64.0
13.79,85.0
13.8,57.0
13.81,72.0
13.82,73.0
13.83,91.0
13.84,69.0
13.85,80.0
13.86,71.0
13.87,71.0
13.88,66.0
13.89,51.0
13.9,65.0
13.91,62.0
13.92,57.0
13.93,77.0
13.94,67.0
13.95,72.0
13.96,61.0
13.97,78.0
13.98,65.0
13.99,75.0
14.0,71.0
14.01,72.0
14.02,76.0
14.03,59.0
14.04,71.0
14.05,58.0
14.06,62.0
14.07,80.0
14.08,68.0
14.09,73.0
14.1,70.0
14.11,54.0
14.12,57.0
14.13,70.0
14.14,78.0
14.15,66.0
14.16,65.0
14.17,79.0
14.18,65.0
14.19,69.0
14.2,81.0
14.21,66.0
14.22,68.0
14.23,75.0
14.24,58.0
14.25,80.0
14.26,70.0
14.27,63.0
14.28,68.0
14.29,58.0
14.3,60.0
14.31,63.0
14.32,74.0
14.33,66.0
14.34,69.0
14.35,70.0
14.36,62.0
14.37,53.0
14.38,67.0
14.39,57.0
14.4,67.0
14.41,81.0
14.42,65.0
14.43,69.0
14.44,80.0
14.45,66.0
14.46,68.0
14.47,63.0
14.48,67.0
14.49,56.0
14.5,60.0
14.51,66.0
14.52,83.0
14.53,64.0
14.54,70.0
14.55,66.0
14.56,69.0
14.57,63.0
14.58,82.0
14.59,88.0
14.6,75.0
14.61,60.0
14.62,69.0
14.63,72.0
14.64,80.0
14.65,78.0
14.66,62.0
14.67,54.0
14.68,56.0
14.69,55.0
14.7,62.0
14.71,82.0
14.72,74.0
14.73,68.0
14.74,71.0
14.75,61.0
14.76,78.0
14.77,75.0
14.78,74.0
14.79,60.0
14.8,68.0
14.81,75.0
14.82,68.0
14.83,64.0
14.84,91.0
14.85,59.0
14.86,56.0
14.87,80.0
14.88,66.0
14.89,72.0
14.9,72.0
14.91,78.0
14.92,62.0
14.93,64.0
14.94,77.0
14.95,73.0
14.96,71.0
14.97,72.0
14.98,56.0
14.99,70.0
15.0,62.0
15.01,63.0
15.02,56.0
15.03,83.0
15.04,67.0
15.05,65.0
15.06,80.0
15.07,71.0
15.08,63.0
15.09,64.0
15.1,61.0
15.11,65.0
15.12,71.0
15.13,64.0
15.14,70.0
15.15,63.0
15.16,69.0
15.17,74.0
15.18,75.0
15.19,67.0
15.2,81.0
15.21,64.0
15.22,66.0
15.23,66.0
15.24,63.0
15.25,60.0
15.26,80.0
15.27,78.0
15.28,76.0
15.29,71.0
15.3,64.0
15.31,72.0
15.32,82.0
15.33,70.0
15.34,63.0
15.35,77.0
15.36,75.0
15.37,81.0
15.38,73.0
15.39,70.0
15.4,70.0
15.41,72.0
15.42,69.0
15.43,85.0
15.44,71.0
15.45,67.0
15.46,72.0
15.47,65.0
15.48,69.0
15.49,61.0
15.5,86.0
15.51,67.0
15.52,52.0
15.53,69.0
15.54,48.0
15.55,75.0
15.56,64.0
15.57,91.0
15.58,47.0
15.59,77.0
15.6,72.0
15.61,78.0
15.62,46.0
15.63,66.0
15.64,68.0
15.65,69.0
15.66,76.0
15.67,67.0
15.68,71.0
15.69,76.0
15.7,69.0
15.71,66.0
15.72,60.0
15.73,61.0
15.74,66.0
15.75,65.0
15.76,74.0
15.77,79.0
15.78,83.0
15.79,57.0
15.8,74.0
15.81,70.0
15.82,57.0
15.83,76.0
15.84,67.0
15.85,75.0
15.86,72.0
15.87,73.0
15.88,61.0
15.89,73.0
15.9,82.0
15.91,67.0
15.92,66.0
15.93,61.0
15.94,59.0
15.95,66.0
15.96,62.0
15.97,71.0
15.98,67.0
15.99,56.0
16.0,67.0
16.01,58.0
16.02,68.0
16.03,72.0
16.04,68.0
16.05,68.0
16.06,65.0
16.07,77.0
16.08,86.0
16.09,64.0
16.1,67.0
16.11,68.0
16.12,66.0
16.13,71.0
16.14,73.0
16.15,66.0
16.16,63.0
16.17,78.0
16.18,62.0
16.19,73.0
16.2,71.0
16.21,69.0
16.22,66.0
16.23,74.0
16.24,69.0
16.25,64.0
16.26,70.0
16.27,67.0
16.28,46.0
16.29,65.0
16.3,71.0
16.31,68.0
16.32,59.0
16.33,70.0
16.34,79.0
16.35,58.0
16.36,65.0
16.37,78.0
16.38,52.0
16.39,61.0
16.4,87.0
16.41,81.0
16.42,79.0
16.43,60.0
16.44,57.0
16.45,69.0
16.46,59.0
16.47,62.0
16.48,66.0
16.49,76.0
16.5,74.0
16.51,64.0
16.52,90.0
16.53,71.0
16.54,55.0
16.55,50.0
16.56,61.0
16.57,70.0
16.58,64.0
16.59,70.0
16.6,73.0
16.61,67.0
16.62,69.0
16.63,68.0
16.64,77.0
16.65,55.0
16.66,74.0
16.67,69.0
16.68,58.0
16.69,69.0
16.7,77.0
16.71,64.0
16.72,66.0
16.73,67.0
16.74,71.0
16.75,88.0
16.76,70.0
16.77,70.0
16.78,55.0
16.79,72.0
16.8,62.0
16.81,72.0
16.82,73.0
16.83,72.0
16.84,59.0
16.85,68.0
16.86,59.0
16.87,77.0
16.88,70.0
16.89,68.0
16.9,78.0
16.91,57.0
16.92,60.0
16.93,73.0
16.94,81.0
16.95,68.0
16.96,65.0
16.97,57.0
16.98,69.0
16.99,62.0
17.0,73.0
17.01,63.0
17.02,68.0
17.03,74.0
17.04,71.0
17.05,64.0
17.06,65.0
17.07,68.0
17.08,72.0
17.09,76.0
17.1,69.0
17.11,61.0
17.12,70.0
17.13,66.0
17.14,67.0
17.15,49.0
17.16,68.0
17.17,89.0
17.18,60.0
17.19,70.0
17.2,70.0
17.21,77.0
17.22,67.0
17.23,70.0
17.24,68.0
17.25,65.0
17.26,78.0
17.27,53.0
17.28,75.0
17.29,65.0
17.3,52.0
17.31,60.0
17.32,71.0
17.33,58.0
17.34,59.0
17.35,62.0
17.36,79.0
17.37,60.0
17.38,68.0
17.39,64.0
17.4,53.0
17.41,64.0
17.42,65.0
17.43,63.0
17.44,77.0
17.45,54.0
17.46,76.0
17.47,71.0
17.48,67.0
17.49,79.0
17.5,64.0
17.51,68.0
17.52,70.0
17.53,56.0
17.54,73.0
17.55,61.0
17.56,65.0
17.57,64.0
17.58,71.0
17.59,68.0
17.6,56.0
17.61,65.0
17.62,72.0
17.63,67.0
17.64,64.0
17.65,62.0
17.66,68.0
17.67,65.0
17.68,83.0
17.69,75.0
17.7,73.0
17.71,64.0
17.72,63.0
17.73,72.0
17.74,63.0
17.75,78.0
17.76,77.0
17.77,57.0
17.78,58.0
17.79,61.0
17.8,70.0
17.81,71.0
17.82,73.0
17.83,66.0
17.84,79.0
17.85,54.0
17.86,79.0
17.87,68.0
17.88,68.0
17.89,68.0
17.9,74.0
17.91,58.0
17.92,68.0
17.93,62.0
17.94,61.0
17.95,69.0
17.96,69.0
17.97,78.0
17.98,84.0
17.99,65.0
18.0,67.0
18.01,53.0
18.02,68.0
18.03,56.0
18.04,56.0
18.05,59.0
18.06,75.0
18.07,87.0
18.08,67.0
18.09,93.0
18.1,59.0
18.11,63.0
18.12,70.0
18.13,59.0
18.14,68.0
18.15,80.0
18.16,68.0
18.17,77.0
18.18,59.0
18.19,63.0
18.2,59.0
18.21,63.0
18.22,74.0
18.23,93.0
18.24,74.0
18.25,70.0
18.26,68.0
18.27,70.0
18.28,86.0
18.29,66.0
18.3,70.0
18.31,70.0
18.32,61.0
18.33,70.0
18.34,63.0
18.35,66.0
18.36,73.0
18.37,72.0
18.38,66.0
18.39,86.0
18.4,80.0
18.41,63.0
18.42,71.0
18.43,68.0
18.44,77.0
18.45,66.0
18.46,75.0
18.47,58.0
18.48,79.0
18.49,63.0
18.5,53.0
18.51,64.0
18.52,64.0
18.53,65.0
18.54,83.0
18.55,64.0
18.56,64.0
18.57,67.0
18.58,73.0
18.59,79.0
18.6,68.0
18.61,64.0
18.62,60.0
18.63,65.0
18.64,77.0
18.65,62.0
18.66,68.0
18.67,63.0
18.68,65.0
18.69,54.0
18.7,63.0
18.71,64.0
18.72,73.0
18.73,73.0
18.74,76.0
18.75,66.0
18.76,44.0
18.77,56.0
18.78,59.0
18.79,80.0
18.8,47.0
18.81,58.0
18.82,68.0
18.83,69.0
18.84,70.0
18.85,72.0
18.86,73.0
18.87,64.0
18.88,69.0
18.89,76.0
18.9,72.0
18.91,67.0
18.92,70.0
18.93,67.0
18.94,76.0
18.95,82.0
18.96,67.0
18.97,62.0
18.98,79.0
18.99,75.0
19.0,68.0
19.01,83.0
19.02,63.0
19.03,90.0
19.04,57.0
19.05,57.0
19.06,70.0
19.07,72.0
19.08,75.0
19.09,67.0
19.1,78.0
19.11,70.0
19.12,79.0
19.13,79.0
19.14,71.0
19.15,71.0
19.16,67.0
19.17,56.0
19.18,73.0
19.19,68.0
19.2,65.0
19.21,65.0
19.22,80.0
19.23,78.0
19.24,63.0
19.25,71.0
19.26,61.0
19.27,78.0
19.28,76.0
19.29,78.0
19.3,72.0
19.31,71.0
19.32,74.0
19.33,51.0
19.34,57.0
19.35,76.0
19.36,67.0
19.37,70.0
19.38,74.0
19.39,64.0
19.4,57.0
19.41,54.0
19.42,57.0
19.43,55.0
19.44,62.0
19.45,66.0
19.46,65.0
19.47,68.0
19.48,66.0
19.49,77.0
19.5,76.0
19.51,67.0
19.52,44.0
19.53,91.0
19.54,61.0
19.55,66.0
19.56,75.0
19.57,64.0
19.58,78.0
19.59,86.0
19.6,56.0
19.61,77.0
19.62,71.0
19.63,66.0
19.64,63.0
19.65,64.0
19.66,82.0
19.67,85.0
19.68,67.0
19.69,59.0
19.7,69.0
19.71,71.0
19.72,61.0
19.73,65.0
19.74,76.0
19.75,77.0
19.76,67.0
19.77,63.0
19.78,57.0
19.79,66.0
19.8,61.0
19.81,73.0
19.82,70.0
19.83,66.0
19.84,65.0
19.85,65.0
19.86,81.0
19.87,70.0
19.88,69.0
19.89,65.0
19.9,73.0
19.91,78.0
19.92,67.0
19.93,65.0
19.94,63.0
19.95,69.0
19.96,79.0
19.97,70.0
19.98,77.0
19.99,56.0
20.0,60.0
20.01,76.0
20.02,60.0
20.03,65.0
20.04,63.0
20.05,65.0
20.06,63.0
20.07,64.0
20.08,64.0
20.09,71.0
20.1,69.0
20.11,66.0
20.12,60.0
20.13,64.0
20.14,64.0
20.15,64.0
20.16,77.0
20.17,58.0
20.18,68.0
20.19,67.0
20.2,64.0
20.21,70.0
20.22,73.0
20.23,69.0
20.24,57.0
20.25,93.0
20.26,71.0
20.27,73.0
20.28,60.0
20.29,64.0
20.3,49.0
20.31,87.0
20.32,72.0
20.33,78.0
20.34,79.0
20.35,73.0
20.36,52.0
20.37,71.0
20.38,90.0
20.39,60.0
20.4,59.0
20.41,63.0
20.42,73.0
20.43,55.0
20.44,66.0
20.45,63.0
20.46,66.0
20.47,64.0
20.48,65.0
20.49,74.0
20.5,62.0
20.51,73.0
20.52,74.0
20.53,62.0
20.54,74.0
20.55,68.0
20.56,83.0
20.57,70.0
20.58,51.0
20.59,80.0
20.6,84.0
20.61,55.0
20.62,76.0
20.63,65.0
20.64,60.0
20.65,71.0
20.66,60.0
20.67,90.0
20.68,70.0
20.69,52.0
20.7,70.0
20.71,60.0
20.72,65.0
20.73,55.0
20.74,71.0
20.75,61.0
20.76,56.0
20.77,71.0
20.78,75.0
20.79,86.0
20.8,74.0
20.81,71.0
20.82,58.0
20.83,69.0
20.84,74.0
20.85,66.0
20.86,75.0
20.87,63.0
20.88,65.0
20.89,72.0
20.9,73.0
20.91,78.0
20.92,80.0
20.93,52.0
20.94,85.0
20.95,71.0
20.96,68.0
20.97,52.0
20.98,75.0
20.99,65.0
21.0,74.0
21.01,90.0
21.02,81.0
21.03,100.0
21.04,82.0
21.05,84.0
21.06,95.0
21.07,117.0
21.08,95.0
21.09,87.0
21.1,74.0
21.11,95.0
21.12,72.0
21.13,85.0
21.14,74.0
21.15,76.0
21.16,62.0
21.17,59.0
21.18,68.0
21.19,58.0
21.2,75.0
21.21,60.0
21.22,56.0
21.23,59.0
21.24,65.0
21.25,64.0
21.26,70.0
21.27,52.0
21.28,58.0
21.29,69.0
21.3,62.0
21.31,71.0
21.32,68.0
21.33,52.0
21.34,61.0
21.35,61.0
21.36,79.0
21.37,64.0
21.38,59.0
21.39,68.0
21.4,83.0
21.41,71.0
21.42,82.0
21.43,72.0
21.44,63.0
21.45,57.0
21.46,61.0
21.47,76.0
21.48,72.0
21.49,71.0
21.5,58.0
21.51,68.0
21.52,72.0
21.53,80.0
21.54,78.0
21.55,58.0
21.56,49.0
21.57,62.0
21.58,63.0
21.59,54.0
21.6,67.0
21.61,75.0
21.62,69.0
21.63,69.0
21.64,60.0
21.65,79.0
21.66,53.0
21.67,78.0
21.68,58.0
21.69,80.0
21.7,83.0
21.71,79.0
21.72,55.0
21.73,60.0
21.74,63.0
21.75,85.0
21.76,60.0
21.77,65.0
21.78,69.0
21.79,85.0
21.8,61.0
21.81,65.0
21.82,78.0
21.83,59.0
21.84,60.0
21.85,58.0
21.86,68.0
21.87,64.0
21.88,61.0
21.89,70.0
21.9,78.0
21.91,56.0
21.92,70.0
21.93,65.0
21.94,59.0
21.95,54.0
21.96,72.0
21.97,67.0
21.98,70.0
21.99,68.0
22.0,70.0
22.01,79.0
22.02,68.0
22.03,82.0
22.04,82.0
22.05,71.0
22.06,58.0
22.07,80.0
22.08,79.0
22.09,67.0
22.1,56.0
22.11,77.0
22.12,65.0
22.13,77.0
22.14,66.0
22.15,70.0
22.16,63.0
22.17,57.0
22.18,61.0
22.19,66.0
22.2,61.0
22.21,73.0
22.22,67.0
22.23,76.0
22.24,77.0
22.25,73.0
22.26,70.0
22.27,43.0
22.28,70.0
22.29,64.0
22.3,67.0
22.31,62.0
22.32,54.0
22.33,68.0
22.34,64.0
22.35,70.0
22.36,64.0
22.37,62.0
22.38,85.0
22.39,64.0
22.4,64.0
22.41,67.0
22.42,71.0
22.43,67.0
22.44,68.0
22.45,87.0
22.46,73.0
22.47,70.0
22.48,79.0
22.49,63.0
22.5,69.0
22.51,69.0
22.52,71.0
22.53,60.0
22.54,56.0
22.55,61.0
22.56,63.0
22.57,59.0
22.58,67.0
22.59,66.0
22.6,78.0
22.61,61.0
22.62,64.0
22.63,64.0
22.64,56.0
22.65,70.0
22.66,76.0
22.67,69.0
22.68,70.0
22.69,67.0
22.7,73.0
22.71,46.0
22.72,63.0
22.73,61.0
22.74,54.0
22.75,59.0
22.76,59.0
22.77,70.0
22.78,59.0
22.79,59.0
22.8,62.0
22.81,55.0
22.82,64.0
22.83,58.0
22.84,67.0
22.85,72.0
22.86,63.0
22.87,62.0
22.88,73.0
22.89,78.0
22.9,58.0
22.91,68.0
22.92,72.0
22.93,68.0
22.94,63.0
22.95,79.0
22.96,68.0
22.97,68.0
22.98,61.0
22.99,91.0
23.0,68.0
23.01,66.0
23.02,64.0
23.03,81.0
23.04,61.0
23.05,81.0
23.06,68.0
23.07,68.0
23.08,56.0
23.09,64.0
23.1,85.0
23.11,74.0
23.12,66.0
23.13,73.0
23.14,73.0
23.15,59.0
23.16,58.0
23.17,63.0
23.18,66.0
23.19,69.0
23.2,68.0
23.21,65.0
23.22,69.0
23.23,55.0
23.24,63.0
23.25,76.0
23.26,72.0
23.27,62.0
23.28,64.0
23.29,78.0
23.3,60.0
23.31,72.0
23.32,51.0
23.33,57.0
23.34,46.0
23.35,76.0
23.36,66.0
23.37,69.0
23.38,75.0
23.39,78.0
23.4,56.0
23.41,55.0
23.42,59.0
23.43,75.0
23.44,72.0
23.45,71.0
23.46,82.0
23.47,78.0
23.48,74.0
23.49,65.0
23.5,60.0
23.51,67.0
23.52,65.0
23.53,55.0
23.54,86.0
23.55,75.0
23.56,69.0
23.57,69.0
23.58,75.0
23.59,67.0
23.6,66.0
23.61,67.0
23.62,63.0
23.63,69.0
23.64,70.0
23.65,61.0
23.66,62.0
23.67,68.0
23.68,69.0
23.69,71.0
23.7,65.0
23.71,60.0
23.72,78.0
23.73,72.0
23.74,67.0
23.75,65.0
23.76,76.0
23.77,78.0
23.78,95.0
23.79,69.0
23.8,52.0
23.81,75.0
23.82,57.0
23.83,68.0
23.84,58.0
23.85,63.0
23.86,68.0
23.87,74.0
23.88,79.0
23.89,63.0
23.9,61.0
23.91,52.0
23.92,72.0
23.93,63.0
23.94,59.0
23.95,74.0
23.96,88.0
23.97,74.0
23.98,70.0
23.99,79.0
24.0,46.0
24.01,51.0
24.02,54.0
24.03,56.0
24.04,69.0
24.05,86.0
24.06,74.0
24.07,61.0
24.08,75.0
24.09,73.0
24.1,55.0
24.11,63.0
24.12,76.0
24.13,71.0
24.14,54.0
24.15,69.0
24.16,69.0
24.17,84.0
24.18,80.0
24.19,60.0
24.2,77.0
24.21,82.0
24.22,67.0
24.23,58.0
24.24,75.0
24.25,61.0
24.26,64.0
24.27,70.0
24.28,69.0
24.29,72.0
24.3,89.0
24.31,49.0
24.32,63.0
24.33,66.0
24.34,79.0
24.35,72.0
24.36,54.0
24.37,57.0
24.38,64.0
24.39,76.0
24.4,56.0
24.41,56.0
24.42,72.0
24.43,62.0
24.44,66.0
24.45,64.0
24.46,65.0
24.47,66.0
24.48,79.0
24.49,54.0
24.5,70.0
24.51,61.0
24.52,62.0
24.53,71.0
24.54,66.0
24.55,59.0
24.56,64.0
24.57,88.0
24.58,83.0
24.59,76.0
24.6,70.0
24.61,59.0
24.62,83.0
24.63,70.0
24.64,71.0
24.65,73.0
24.66,48.0
24.67,64.0
24.68,65.0
24.69,70.0
24.7,54.0
24.71,59.0
24.72,72.0
24.73,54.0
24.74,47.0
24.75,61.0
24.76,62.0
24.77,69.0
24.78,72.0
24.79,69.0
24.8,66.0
24.81,72.0
24.82,61.0
24.83,66.0
24.84,67.0
24.85,54.0
24.86,67.0
24.87,77.0
24.88,67.0
24.89,80.0
24.9,76.0
24.91,67.0
24.92,69.0
24.93,67.0
24.94,69.0
24.95,64.0
24.96,59.0
24.97,70.0
24.98,63.0
24.99,60.0
25.0,74.0
25.01,63.0
25.02,68.0
25.03,69.0
25.04,64.0
25.05,67.0
25.06,80.0
25.07,66.0
25.08,60.0
25.09,62.0
25.1,72.0
25.11,78.0
25.12,57.0
25.13,76.0
25.14,71.0
25.15,71.0
25.16,71.0
25.17,66.0
25.18,55.0
25.19,79.0
25.2,58.0
25.21,76.0
25.22,68.0
25.23,60.0
25.24,63.0
25.25,80.0
25.26,78.0
25.27,76.0
25.28,64.0
25.29,65.0
25.3,67.0
25.31,65.0
25.32,68.0
25.33,61.0
25.34,74.0
25.35,71.0
25.36,62.0
25.37,67.0
25.38,76.0
25.39,67.0
25.4,61.0
25.41,63.0
25.42,84.0
25.43,75.0
25.44,67.0
25.45,66.0
25.46,59.0
25.47,63.0
25.48,62.0
25.49,72.0
25.5,78.0
25.51,87.0
25.52,61.0
25.53,69.0
25.54,62.0
25.55,57.0
25.56,59.0
25.57,54.0
25.58,90.0
25.59,57.0
25.6,78.0
25.61,71.0
25.62,66.0
25.63,58.0
25.64,76.0
25.65,67.0
25.66,57.0
25.67,74.0
25.68,79.0
25.69,62.0
25.7,63.0
25.71,66.0
25.72,74.0
25.73,76.0
25.74,64.0
25.75,89.0
25.76,72.0
25.77,60.0
25.78,73.0
25.79,59.0
25.8,86.0
25.81,58.0
25.82,61.0
25.83,67.0
25.84,71.0
25.85,69.0
25.86,75.0
25.87,66.0
25.88,62.0
25.89,86.0
25.9,62.0
25.91,62.0
25.92,64.0
25.93,82.0
25.94,70.0
25.95,60.0
25.96,66.0
25.97,69.0
25.98,73.0
25.99,66.0
26.0,68.0
26.01,74.0
26.02,74.0
26.03,78.0
26.04,52.0
26.05,70.0
26.06,76.0
26.07,86.0
26.08,61.0
26.09,70.0
26.1,70.0
26.11,66.0
26.12,68.0
26.13,69.0
26.14,60.0
26.15,68.0
26.16,66.0
26.17,49.0
26.18,63.0
26.19,81.0
26.2,52.0
26.21,69.0
26.22,67.0
26.23,65.0
26.24,61.0
26.25,72.0
26.26,54.0
26.27,70.0
26.28,60.0
26.29,60.0
26.3,60.0
26.31,68.0
26.32,72.0
26.33,57.0
26.34,75.0
26.35,59.0
26.36,57.0
26.37,69.0
26.38,74.0
26.39,72.0
26.4,59.0
26.41,69.0
26.42,66.0
26.43,64.0
26.44,61.0
26.45,59.0
26.46,66.0
26.47,67.0
26.48,57.0
26.49,58.0
26.5,70.0
26.51,74.0
26.52,73.0
26.53,70.0
26.54,55.0
26.55,70.0
26.56,57.0
26.57,68.0
26.58,57.0
26.59,62.0
26.6,76.0
26.61,58.0
26.62,61.0
26.63,74.0
26.64,66.0
26.65,65.0
26.66,69.0
26.67,65.0
26.68,67.0
26.69,73.0
26.7,62.0
26.71,61.0
26.72,81.0
26.73,82.0
26.74,69.0
26.75,64.0
26.76,74.0
26.77,68.0
26.78,79.0
26.79,74.0
26.8,59.0
26.81,76.0
26.82,64.0
26.83,71.0
26.84,88.0
26.85,63.0
26.86,66.0
26.87,57.0
26.88,68.0
26.89,67.0
26.9,66.0
26.91,58.0
26.92,78.0
26.93,75.0
26.94,83.0
26.95,89.0
26.96,60.0
26.97,66.0
26.98,86.0
26.99,66.0
27.0,83.0
27.01,81.0
27.02,77.0
27.03,84.0
27.04,77.0
27.05,60.0
27.06,71.0
27.07,69.0
27.08,72.0
27.09,66.0
27.1,71.0
27.11,56.0
27.12,83.0
27.13,80.0
27.14,60.0
27.15,75.0
27.16,64.0
27.17,77.0
27.18,74.0
27.19,57.0
27.2,67.0
27.21,67.0
27.22,67.0
27.23,72.0
27.24,50.0
27.25,57.0
27.26,58.0
27.27,62.0
27.28,56.0
27.29,59.0
27.3,57.0
27.31,51.0
27.32,61.0
27.33,60.0
27.34,59.0
27.35,55.0
27.36,63.0
27.37,39.0
27.38,69.0
27.39,57.0
27.4,62.0
27.41,60.0
27.42,70.0
27.43,73.0
27.44,61.0
27.45,74.0
27.46,52.0
27.47,55.0
27.48,59.0
27.49,72.0
27.5,64.0
27.51,61.0
27.52,76.0
27.53,69.0
27.54,55.0
27.55,79.0
27.56,67.0
27.57,43.0
27.58,52.0
27.59,75.0
27.6,68.0
27.61,79.0
27.62,71.0
27.63,60.0
27.64,75.0
27.65,72.0
27.66,60.0
27.67,57.0
27.68,67.0
27.69,62.0
27.7,64.0
27.71,66.0
27.72,81.0
27.73,77.0
27.74,66.0
27.75,49.0
27.76,68.0
27.77,65.0
27.78,77.0
27.79,70.0
27.8,64.0
27.81,70.0
27.82,77.0
27.83,61.0
27.84,67.0
27.85,63.0
27.86,59.0
27.87,67.0
27.88,61.0
27.89,65.0
27.9,71.0
27.91,72.0
27.92,55.0
27.93,70.0
27.94,71.0
27.95,75.0
27.96,66.0
27.97,79.0
27.98,68.0
27.99,71.0
28.0,73.0
28.01,81.0
28.02,72.0
28.03,69.0
28.04,64.0
28.05,62.0
28.06,74.0
28.07,85.0
28.08,65.0
28.09,69.0
28.1,67.0
28.11,67.0
28.12,72.0
28.13,74.0
28.14,60.0
28.15,62.0
28.16,66.0
28.17,76.0
28.18,90.0
28.19,76.0
28.2,68.0
28.21,68.0
28.22,75.0
28.23,74.0
28.24,64.0
28.25,62.0
28.26,64.0
28.27,52.0
28.28,61.0
28.29,76.0
28.3,75.0
28.31,76.0
28.32,70.0
28.33,68.0
28.34,65.0
28.35,57.0
28.36,61.0
28.37,88.0
28.38,64.0
28.39,68.0
28.4,68.0
28.41,70.0
28.42,70.0
28.43,68.0
28.44,72.0
28.45,61.0
28.46,73.0
28.47,71.0
28.48,64.0
28.49,77.0
28.5,69.0
28.51,75.0
28.52,60.0
28.53,67.0
28.54,74.0
28.55,62.0
28.56,68.0
28.57,68.0
28.58,67.0
28.59,59.0
28.6,56.0
28.61,60.0
28.62,56.0
28.63,78.0
28.64,63.0
28.65,74.0
28.66,83.0
28.67,72.0
28.68,59.0
28.69,64.0
28.7,73.0
28.71,59.0
28.72,70.0
28.73,58.0
28.74,68.0
28.75,62.0
28.76,68.0
28.77,74.0
28.78,79.0
28.79,69.0
28.8,74.0
28.81,61.0
28.82,63.0
28.83,75.0
28.84,74.0
28.85,68.0
28.86,74.0
28.87,67.0
28.88,57.0
28.89,70.0
28.9,67.0
28.91,75.0
28.92,61.0
28.93,60.0
28.94,65.0
28.95,73.0
28.96,57.0
28.97,70.0
28.98,65.0
28.99,71.0
29.0,64.0
29.01,65.0
29.02,55.0
29.03,63.0
29.04,69.0
29.05,58.0
29.06,49.0
29.07,81.0
29.08,70.0
29.09,54.0
29.1,79.0
29.11,65.0
29.12,77.0
29.13,76.0
29.14,70.0
29.15,64.0
29.16,68.0
29.17,65.0
29.18,71.0
29.19,73.0
29.2,82.0
29.21,87.0
29.22,72.0
29.23,62.0
29.24,72.0
29.25,81.0
29.26,65.0
29.27,72.0
29.28,59.0
29.29,74.0
29.3,60.0
29.31,80.0
29.32,71.0
29.33,71.0
29.34,72.0
29.35,77.0
29.36,56.0
29.37,76.0
29.38,71.0
29.39,67.0
29.4,65.0
29.41,68.0
29.42,66.0
29.43,61.0
29.44,74.0
29.45,84.0
29.46,61.0
29.47,81.0
29.48,73.0
29.49,66.0
29.5,69.0
29.51,60.0
29.52,58.0
29.53,65.0
29.54,79.0
29.55,70.0
29.56,74.0
29.57,68.0
29.58,78.0
29.59,67.0
29.6,68.0
29.61,69.0
29.62,61.0
29.63,68.0
29.64,71.0
29.65,96.0
29.66,63.0
29.67,72.0
29.68,64.0
29.69,75.0
29.7,81.0
29.71,70.0
29.72,66.0
29.73,83.0
29.74,76.0
29.75,79.0
29.76,86.0
29.77,78.0
29.78,88.0
29.79,83.0
29.8,97.0
29.81,76.0
29.82,93.0
29.83,94.0
29.84,76.0
29.85,97.0
29.86,118.0
29.87,116.0
29.88,122.0
29.89,154.0
29.9,223.0
29.91,397.0
29.92,680.0
29.93,852.0
29.94,672.0
29.95,457.0
29.96,369.0
29.97,292.0
29.98,279.0
29.99,343.0
30.0,442.0
30.01,435.0
30.02,338.0
30.03,223.0
30.04,200.0
30.05,154.0
30.06,116.0
30.07,104.0
30.08,98.0
30.09,85.0
30.1,90.0
30.11,79.0
30.12,82.0
30.13,76.0
30.14,74.0
30.15,77.0
30.16,76.0
30.17,68.0
30.18,76.0
30.19,58.0
30.2,87.0
30.21,72.0
30.22,82.0
30.23,77.0
30.24,79.0
30.25,79.0
30.26,102.0
30.27,87.0
30.28,85.0
30.29,67.0
30.3,75.0
30.31,73.0
30.32,70.0
30.33,71.0
30.34,76.0
30.35,75.0
30.36,78.0
30.37,66.0
30.38,75.0
30.39,69.0
30.4,77.0
30.41,72.0
30.42,56.0
30.43,83.0
30.44,61.0
30.45,71.0
30.46,68.0
30.47,81.0
30.48,73.0
30.49,66.0
30.5,71.0
30.51,77.0
30.52,60.0
30.53,56.0
30.54,74.0
30.55,75.0
30.56,74.0
30.57,78.0
30.58,65.0
30.59,75.0
30.6,58.0
30.61,54.0
30.62,70.0
30.63,60.0
30.64,59.0
30.65,72.0
30.66,84.0
30.67,74.0
30.68,61.0
30.69,85.0
30.7,50.0
30.71,60.0
30.72,67.0
30.73,53.0
30.74,72.0
30.75,69.0
30.76,66.0
30.77,62.0
30.78,61.0
30.79,63.0
30.8,68.0
30.81,51.0
30.82,75.0
30.83,63.0
30.84,74.0
30.85,57.0
30.86,66.0
30.87,83.0
30.88,78.0
30.89,66.0
30.9,64.0
30.91,73.0
30.92,67.0
30.93,60.0
30.94,59.0
30.95,62.0
30.96,70.0
30.97,70.0
30.98,71.0
30.99,78.0
31.0,62.0
31.01,69.0
31.02,55.0
31.03,90.0
31.04,77.0
31.05,65.0
31.06,68.0
31.07,59.0
31.08,56.0
31.09,68.0
31.1,67.0
31.11,77.0
31.12,56.0
31.13,67.0
31.14,70.0
31.15,56.0
31.16,80.0
31.17,75.0
31.18,70.0
31.19,70.0
31.2,61.0
31.21,72.0
31.22,62.0
31.23,64.0
31.24,67.0
31.25,72.0
31.26,54.0
31.27,74.0
31.28,73.0
31.29,60.0
31.3,77.0
31.31,65.0
31.32,46.0
31.33,57.0
31.34,64.0
31.35,58.0
31.36,71.0
31.37,73.0
31.38,66.0
31.39,80.0
31.4,67.0
31.41,55.0
31.42,54.0
31.43,61.0
31.44,68.0
31.45,65.0
31.46,79.0
31.47,84.0
31.48,78.0
31.49,76.0
31.5,56.0
31.51,68.0
31.52,73.0
31.53,64.0
31.54,71.0
31.55,69.0
31.56,59.0
31.57,55.0
31.58,65.0
31.59,72.0
31.6,64.0
31.61,57.0
31.62,71.0
31.63,60.0
31.64,68.0
31.65,55.0
31.66,55.0
31.67,68.0
31.68,62.0
31.69,67.0
31.7,77.0
31.71,63.0
31.72,61.0
31.73,50.0
31.74,82.0
31.75,62.0
31.76,75.0
31.77,56.0
31.78,84.0
31.79,62.0
31.8,67.0
31.81,77.0
31.82,75.0
31.83,61.0
31.84,72.0
31.85,69.0
31.86,69.0
31.87,68.0
31.88,63.0
31.89,59.0
31.9,72.0
31.91,67.0
31.92,68.0
31.93,78.0
31.94,65.0
31.95,69.0
31.96,79.0
31.97,70.0
31.98,70.0
31.99,71.0
32.0,64.0
32.01,70.0
32.02,77.0
32.03,76.0
32.04,59.0
32.05,72.0
32.06,75.0
32.07,61.0
32.08,67.0
32.09,60.0
32.1,64.0
32.11,53.0
32.12,71.0
32.13,78.0
32.14,91.0
32.15,67.0
32.16,75.0
32.17,70.0
32.18,72.0
32.19,71.0
32.2,65.0
32.21,54.0
32.22,72.0
32.23,71.0
32.24,60.0
32.25,68.0
32.26,67.0
32.27,59.0
32.28,65.0
32.29,70.0
32.3,77.0
32.31,58.0
32.32,66.0
32.33,60.0
32.34,73.0
32.35,64.0
32.36,70.0
32.37,66.0
32.38,58.0
32.39,68.0
32.4,74.0
32.41,61.0
32.42,73.0
32.43,63.0
32.44,70.0
32.45,60.0
32.46,72.0
32.47,78.0
32.48,72.0
32.49,67.0
32.5,70.0
32.51,62.0
32.52,72.0
32.53,71.0
32.54,58.0
32.55,78.0
32.56,67.0
32.57,82.0
32.58,94.0
32.59,55.0
32.6,80.0
32.61,81.0
32.62,61.0
32.63,76.0
32.64,69.0
32.65,73.0
32.66,56.0
32.67,69.0
32.68,69.0
32.69,74.0
32.7,80.0
32.71,59.0
32.72,78.0
32.73,81.0
32.74,88.0
32.75,73.0
32.76,77.0
32.77,66.0
32.78,79.0
32.79,61.0
32.8,62.0
32.81,72.0
32.82,67.0
32.83,76.0
32.84,69.0
32.85,80.0
32.86,67.0
32.87,67.0
32.88,59.0
32.89,68.0
32.9,71.0
32.91,60.0
32.92,68.0
32.93,70.0
32.94,78.0
32.95,65.0
32.96,69.0
32.97,73.0
32.98,57.0
32.99,70.0
33.0,73.0
33.01,68.0
33.02,66.0
33.03,84.0
33.04,72.0
33.05,55.0
33.06,72.0
33.07,58.0
33.08,67.0
33.09,51.0
33.1,77.0
33.11,71.0
33.12,81.0
33.13,74.0
33.14,72.0
33.15,76.0
33.16,65.0
33.17,68.0
33.18,59.0
33.19,68.0
33.2,82.0
33.21,70.0
33.22,82.0
33.23,63.0
33.24,72.0
33.25,80.0
33.26,75.0
33.27,83.0
33.28,76.0
33.29,82.0
33.3,68.0
33.31,81.0
33.32,87.0
33.33,82.0
33.34,61.0
33.35,69.0
33.36,79.0
33.37,81.0
33.38,92.0
33.39,74.0
33.4,81.0
33.41,81.0
33.42,112.0
33.43,101.0
33.44,77.0
33.45,80.0
33.46,91.0
33.47,107.0
33.48,106.0
33.49,119.0
33.5,126.0
33.51,171.0
33.52,197.0
33.53,237.0
33.54,299.0
33.55,436.0
33.56,611.0
33.57,850.0
33.58,925.0
33.59,726.0
33.6,455.0
33.61,317.0
33.62,271.0
33.63,259.0
33.64,325.0
33.65,458.0
33.66,490.0
33.67,477.0
33.68,362.0
33.69,267.0
33.7,184.0
33.71,105.0
33.72,114.0
33.73,95.0
33.74,90.0
33.75,85.0
33.76,91.0
33.77,100.0
33.78,82.0
33.79,90.0
33.8,71.0
33.81,87.0
33.82,93.0
33.83,90.0
33.84,71.0
33.85,85.0
33.86,84.0
33.87,63.0
33.88,80.0
33.89,80.0
33.9,60.0
33.91,77.0
33.92,78.0
33.93,72.0
33.94,77.0
33.95,85.0
33.96,74.0
33.97,82.0
33.98,83.0
33.99,68.0
34.0,66.0
34.01,85.0
34.02,72.0
34.03,78.0
34.04,75.0
34.05,64.0
34.06,57.0
34.07,77.0
34.08,78.0
34.09,80.0
34.1,71.0
34.11,61.0
34.12,81.0
34.13,74.0
34.14,90.0
34.15,91.0
34.16,69.0
34.17,68.0
34.18,68.0
34.19,70.0
34.2,79.0
34.21,64.0
34.22,53.0
34.23,67.0
34.24,55.0
34.25,68.0
34.26,76.0
34.27,73.0
34.28,65.0
34.29,73.0
34.3,80.0
34.31,79.0
34.32,59.0
34.33,63.0
34.34,71.0
34.35,78.0
34.36,60.0
34.37,68.0
34.38,74.0
34.39,71.0
34.4,60.0
34.41,82.0
34.42,56.0
34.43,70.0
34.44,75.0
34.45,71.0
34.46,61.0
34.47,71.0
34.48,71.0
34.49,55.0
34.5,69.0
34.51,68.0
34.52,85.0
34.53,73.0
34.54,83.0
34.55,72.0
34.56,72.0
34.57,70.0
34.58,57.0
34.59,56.0
34.6,62.0
34.61,65.0
34.62,85.0
34.63,73.0
34.64,73.0
34.65,72.0
34.66,73.0
34.67,67.0
34.68,75.0
34.69,73.0
34.7,79.0
34.71,81.0
34.72,62.0
34.73,70.0
34.74,71.0
34.75,73.0
34.76,57.0
34.77,53.0
34.78,64.0
34.79,61.0
34.8,55.0
34.81,92.0
34.82,71.0
34.83,60.0
34.84,56.0
34.85,71.0
34.86,43.0
34.87,85.0
34.88,85.0
34.89,80.0
34.9,70.0
34.91,63.0
34.92,77.0
34.93,85.0
34.94,74.0
34.95,68.0
34.96,71.0
34.97,74.0
34.98,63.0
34.99,69.0
35.0,52.0
35.01,64.0
35.02,74.0
35.03,53.0
35.04,67.0
35.05,75.0
35.06,72.0
35.07,85.0
35.08,71.0
35.09,68.0
35.1,63.0
35.11,79.0
35.12,77.0
35.13,74.0
35.14,64.0
35.15,65.0
35.16,69.0
35.17,73.0
35.18,74.0
35.19,76.0
35.2,83.0
35.21,81.0
35.22,85.0
35.23,107.0
35.24,93.0
35.25,94.0
35.26,108.0
35.27,108.0
35.28,97.0
35.29,96.0
35.3,99.0
35.31,82.0
35.32,89.0
35.33,82.0
35.34,81.0
35.35,100.0
35.36,88.0
35.37,100.0
35.38,94.0
35.39,71.0
35.4,66.0
35.41,56.0
35.42,81.0
35.43,62.0
35.44,83.0
35.45,66.0
35.46,81.0
35.47,69.0
35.48,67.0
35.49,65.0
35.5,73.0
35.51,76.0
35.52,71.0
35.53,56.0
35.54,68.0
35.55,77.0
35.56,65.0
35.57,66.0
35.58,59.0
35.59,65.0
35.6,54.0
35.61,70.0
35.62,64.0
35.63,57.0
35.64,67.0
35.65,63.0
35.66,62.0
35.67,71.0
35.68,65.0
35.69,83.0
35.7,58.0
35.71,66.0
35.72,68.0
35.73,68.0
35.74,69.0
35.75,78.0
35.76,75.0
35.77,60.0
35.78,53.0
35.79,62.0
35.8,85.0
35.81,77.0
35.82,74.0
35.83,74.0
35.84,66.0
35.85,68.0
35.86,65.0
35.87,72.0
35.88,72.0
35.89,65.0
35.9,68.0
35.91,67.0
35.92,71.0
35.93,73.0
35.94,52.0
35.95,65.0
35.96,67.0
35.97,75.0
35.98,72.0
35.99,78.0
36.0,71.0
36.01,66.0
36.02,76.0
36.03,62.0
36.04,84.0
36.05,73.0
36.06,75.0
36.07,57.0
36.08,61.0
36.09,85.0
36.1,67.0
36.11,54.0
36.12,63.0
36.13,71.0
36.14,65.0
36.15,65.0
36.16,58.0
36.17,68.0
36.18,75.0
36.19,70.0
36.2,74.0
36.21,73.0
36.22,73.0
36.23,76.0
36.24,70.0
36.25,68.0
36.26,61.0
36.27,73.0
36.28,83.0
36.29,70.0
36.3,62.0
36.31,54.0
36.32,68.0
36.33,77.0
36.34,69.0
36.35,87.0
36.36,47.0
36.37,71.0
36.38,56.0
36.39,56.0
36.4,75.0
36.41,65.0
36.42,69.0
36.43,54.0
36.44,98.0
36.45,83.0
36.46,71.0
36.47,68.0
36.48,62.0
36.49,63.0
36.5,77.0
36.51,60.0
36.52,66.0
36.53,55.0
36.54,70.0
36.55,71.0
36.56,72.0
36.57,58.0
36.58,89.0
36.59,78.0
36.6,77.0
36.61,78.0
36.62,81.0
36.63,91.0
36.64,61.0
36.65,73.0
36.66,82.0
36.67,77.0
36.68,65.0
36.69,85.0
36.7,74.0
36.71,73.0
36.72,80.0
36.73,63.0
36.74,78.0
36.75,70.0
36.76,82.0
36.77,74.0
36.78,92.0
36.79,113.0
36.8,107.0
36.81,107.0
36.82,98.0
36.83,156.0
36.84,185.0
36.85,239.0
36.86,274.0
36.87,280.0
36.88,286.0
36.89,318.0
36.9,278.0
36.91,291.0
36.92,251.0
36.93,214.0
36.94,205.0
36.95,195.0
36.96,217.0
36.97,190.0
36.98,177.0
36.99,167.0
37.0,174.0
37.01,154.0
37.02,145.0
37.03,117.0
37.04,108.0
37.05,99.0
37.06,79.0
37.07,82.0
37.08,77.0
37.09,75.0
37.1,87.0
37.11,80.0
37.12,96.0
37.13,63.0
37.14,70.0
37.15,69.0
37.16,73.0
37.17,81.0
37.18,76.0
37.19,75.0
37.2,80.0
37.21,60.0
37.22,74.0
37.23,65.0
37.24,64.0
37.25,64.0
37.26,68.0
37.27,70.0
37.28,63.0
37.29,65.0
37.3,63.0
37.31,57.0
37.32,62.0
37.33,64.0
37.34,66.0
37.35,65.0
37.36,71.0
37.37,70.0
37.38,61.0
37.39,65.0
37.4,77.0
37.41,71.0
37.42,63.0
37.43,60.0
37.44,80.0
37.45,73.0
37.46,69.0
37.47,87.0
37.48,71.0
37.49,69.0
37.5,78.0
37.51,74.0
37.52,66.0
37.53,64.0
37.54,64.0
37.55,79.0
37.56,69.0
37.57,67.0
37.58,79.0
37.59,77.0
37.6,83.0
37.61,78.0
37.62,78.0
37.63,78.0
37.64,59.0
37.65,90.0
37.66,66.0
37.67,63.0
37.68,70.0
37.69,77.0
37.7,67.0
37.71,70.0
37.72,77.0
37.73,70.0
37.74,72.0
37.75,69.0
37.76,56.0
37.77,64.0
37.78,76.0
37.79,75.0
37.8,75.0
37.81,70.0
37.82,66.0
37.83,60.0
37.84,77.0
37.85,58.0
37.86,65.0
37.87,61.0
37.88,70.0
37.89,70.0
37.9,77.0
37.91,72.0
37.92,83.0
37.93,95.0
37.94,54.0
37.95,65.0
37.96,73.0
37.97,75.0
37.98,60.0
37.99,71.0
38.0,72.0
38.01,60.0
38.02,51.0
38.03,72.0
38.04,49.0
38.05,56.0
38.06,72.0
38.07,63.0
38.08,71.0
38.09,68.0
38.1,58.0
38.11,74.0
38.12,82.0
38.13,73.0
38.14,70.0
38.15,72.0
38.16,69.0
38.17,76.0
38.18,57.0
38.19,63.0
38.2,75.0
38.21,73.0
38.22,86.0
38.23,70.0
38.24,66.0
38.25,76.0
38.26,71.0
38.27,73.0
38.28,73.0
38.29,73.0
38.3,68.0
38.31,82.0
38.32,64.0
38.33,79.0
38.34,68.0
38.35,80.0
38.36,75.0
38.37,72.0
38.38,75.0
38.39,90.0
38.4,90.0
38.41,96.0
38.42,136.0
38.43,125.0
38.44,172.0
38.45,164.0
38.46,149.0
38.47,135.0
38.48,121.0
38.49,81.0
38.5,96.0
38.51,95.0
38.52,110.0
38.53,130.0
38.54,112.0
38.55,134.0
38.56,116.0
38.57,100.0
38.58,77.0
38.59,86.0
38.6,76.0
38.61,73.0
38.62,72.0
38.63,75.0
38.64,70.0
38.65,86.0
38.66,75.0
38.67,77.0
38.68,72.0
38.69,83.0
38.7,83.0
38.71,76.0
38.72,70.0
38.73,69.0
38.74,79.0
38.75,59.0
38.76,68.0
38.77,66.0
38.78,68.0
38.79,67.0
38.8,76.0
38.81,66.0
38.82,74.0
38.83,68.0
38.84,74.0
38.85,64.0
38.86,85.0
38.87,66.0
38.88,61.0
38.89,78.0
38.9,67.0
38.91,71.0
38.92,61.0
38.93,55.0
38.94,68.0
38.95,68.0
38.96,74.0
38.97,73.0
38.98,57.0
38.99,84.0
39.0,46.0
39.01,78.0
39.02,65.0
39.03,77.0
39.04,56.0
39.05,57.0
39.06,73.0
39.07,67.0
39.08,62.0
39.09,70.0
39.1,78.0
39.11,67.0
39.12,58.0
39.13,58.0
39.14,69.0
39.15,73.0
39.16,66.0
39.17,71.0
39.18,61.0
39.19,68.0
39.2,68.0
39.21,65.0
39.22,70.0
39.23,76.0
39.24,50.0
39.25,67.0
39.26,56.0
39.27,70.0
39.28,64.0
39.29,63.0
39.3,74.0
39.31,77.0
39.32,53.0
39.33,77.0
39.34,73.0
39.35,71.0
39.36,46.0
39.37,82.0
39.38,60.0
39.39,71.0
39.4,69.0
39.41,68.0
39.42,71.0
39.43,68.0
39.44,66.0
39.45,76.0
39.46,67.0
39.47,59.0
39.48,70.0
39.49,78.0
39.5,62.0
39.51,79.0
39.52,72.0
39.53,69.0
39.54,72.0
39.55,77.0
39.56,63.0
39.57,64.0
39.58,65.0
39.59,68.0
39.6,53.0
39.61,72.0
39.62,59.0
39.63,65.0
39.64,62.0
39.65,75.0
39.66,64.0
39.67,73.0
39.68,60.0
39.69,88.0
39.7,66.0
39.71,68.0
39.72,71.0
39.73,51.0
39.74,61.0
39.75,68.0
39.76,67.0
39.77,71.0
39.78,76.0
39.79,67.0
39.8,75.0
39.81,79.0
39.82,72.0
39.83,75.0
39.84,64.0
39.85,80.0
39.86,76.0
39.87,73.0
39.88,67.0
39.89,73.0
39.9,70.0
39.91,79.0
39.92,74.0
39.93,71.0
39.94,56.0
39.95,81.0
39.96,65.0
39.97,75.0
39.98,63.0
39.99,59.0
40.0,79.0
40.01,46.0
40.02,58.0
40.03,69.0
40.04,73.0
40.05,81.0
40.06,54.0
40.07,80.0
40.08,69.0
40.09,57.0
40.1,66.0
40.11,76.0
40.12,69.0
40.13,74.0
40.14,68.0
40.15,73.0
40.16,68.0
40.17,70.0
40.18,87.0
40.19,68.0
40.2,67.0
40.21,75.0
40.22,68.0
40.23,66.0
40.24,57.0
40.25,65.0
40.26,94.0
40.27,87.0
40.28,65.0
40.29,71.0
40.3,61.0
40.31,78.0
40.32,60.0
40.33,41.0
40.34,63.0
40.35,66.0
40.36,73.0
40.37,76.0
40.38,65.0
40.39,75.0
40.4,81.0
40.41,62.0
40.42,53.0
40.43,55.0
40.44,82.0
40.45,61.0
40.46,65.0
40.47,66.0
40.48,63.0
40.49,75.0
40.5,64.0
40.51,79.0
40.52,78.0
40.53,68.0
40.54,85.0
40.55,68.0
40.56,65.0
40.57,63.0
40.58,63.0
40.59,65.0
40.6,72.0
40.61,90.0
40.62,84.0
40.63,57.0
40.64,56.0
40.65,63.0
40.66,72.0
40.67,84.0
40.68,72.0
40.69,74.0
40.7,61.0
40.71,71.0
40.72,66.0
40.73,54.0
40.74,69.0
40.75,60.0
40.76,69.0
40.77,77.0
40.78,70.0
40.79,62.0
40.8,63.0
40.81,70.0
40.82,74.0
40.83,60.0
40.84,73.0
40.85,78.0
40.86,64.0
40.87,70.0
40.88,82.0
40.89,67.0
40.9,59.0
40.91,71.0
40.92,70.0
40.93,73.0
40.94,87.0
40.95,56.0
40.96,69.0
40.97,72.0
40.98,67.0
40.99,66.0
41.0,64.0
41.01,67.0
41.02,65.0
41.03,72.0
41.04,62.0
41.05,71.0
41.06,69.0
41.07,79.0
41.08,74.0
41.09,59.0
41.1,81.0
41.11,67.0
41.12,67.0
41.13,68.0
41.14,76.0
41.15,57.0
41.16,65.0
41.17,61.0
41.18,87.0
41.19,78.0
41.2,80.0
41.21,62.0
41.22,59.0
41.23,62.0
41.24,61.0
41.25,60.0
41.26,69.0
41.27,50.0
41.28,69.0
41.29,72.0
41.3,65.0
41.31,81.0
41.32,72.0
41.33,71.0
41.34,75.0
41.35,77.0
41.36,95.0
41.37,92.0
41.38,106.0
41.39,136.0
41.4,153.0
41.41,152.0
41.42,154.0
41.43,137.0
41.44,115.0
41.45,101.0
41.46,92.0
41.47,83.0
41.48,117.0
41.49,97.0
41.5,117.0
41.51,91.0
41.52,127.0
41.53,122.0
41.54,108.0
41.55,103.0
41.56,92.0
41.57,89.0
41.58,72.0
41.59,68.0
41.6,71.0
41.61,81.0
41.62,65.0
41.63,74.0
41.64,73.0
41.65,78.0
41.66,66.0
41.67,70.0
41.68,68.0
41.69,81.0
41.7,60.0
41.71,71.0
41.72,69.0
41.73,79.0
41.74,78.0
41.75,67.0
41.76,84.0
41.77,83.0
41.78,60.0
41.79,77.0
41.8,69.0
41.81,72.0
41.82,67.0
41.83,69.0
41.84,75.0
41.85,60.0
41.86,73.0
41.87,62.0
41.88,69.0
41.89,85.0
41.9,69.0
41.91,74.0
41.92,80.0
41.93,66.0
41.94,73.0
41.95,81.0
41.96,82.0
41.97,73.0
41.98,64.0
41.99,76.0
42.0,69.0
42.01,50.0
42.02,69.0
42.03,69.0
42.04,52.0
42.05,73.0
42.06,58.0
42.07,63.0
42.08,65.0
42.09,78.0
42.1,71.0
42.11,57.0
42.12,86.0
42.13,68.0
42.14,65.0
42.15,70.0
42.16,80.0
42.17,58.0
42.18,68.0
42.19,64.0
42.2,88.0
42.21,74.0
42.22,72.0
42.23,71.0
42.24,63.0
42.25,73.0
42.26,79.0
42.27,68.0
42.28,69.0
42.29,62.0
42.3,66.0
42.31,67.0
42.32,83.0
42.33,64.0
42.34,67.0
42.35,74.0
42.36,60.0
42.37,50.0
42.38,71.0
42.39,78.0
42.4,52.0
42.41,73.0
42.42,69.0
42.43,64.0
42.44,65.0
42.45,67.0
42.46,72.0
42.47,72.0
42.48,72.0
42.49,68.0
42.5,68.0
42.51,70.0
42.52,55.0
42.53,70.0
42.54,74.0
42.55,59.0
42.56,72.0
42.57,79.0
42.58,56.0
42.59,63.0
42.6,72.0
42.61,79.0
42.62,65.0
42.63,70.0
42.64,68.0
42.65,74.0
42.66,66.0
42.67,77.0
42.68,82.0
42.69,57.0
42.7,72.0
42.71,75.0
42.72,66.0
42.73,59.0
42.74,71.0
42.75,60.0
42.76,81.0
42.77,75.0
42.78,66.0
42.79,68.0
42.8,70.0
42.81,69.0
42.82,69.0
42.83,76.0
42.84,58.0
42.85,80.0
42.86,69.0
42.87,62.0
42.88,66.0
42.89,80.0
42.9,59.0
42.91,54.0
42.92,64.0
42.93,71.0
42.94,76.0
42.95,62.0
42.96,69.0
42.97,75.0
42.98,65.0
42.99,68.0
43.0,67.0
43.01,75.0
43.02,68.0
43.03,61.0
43.04,78.0
43.05,68.0
43.06,63.0
43.07,67.0
43.08,55.0
43.09,71.0
43.1,53.0
43.11,70.0
43.12,73.0
43.13,54.0
43.14,62.0
43.15,74.0
43.16,79.0
43.17,72.0
43.18,59.0
43.19,62.0
43.2,74.0
43.21,79.0
43.22,53.0
43.23,72.0
43.24,71.0
43.25,67.0
43.26,75.0
43.27,64.0
43.28,72.0
43.29,65.0
43.3,80.0
43.31,66.0
43.32,63.0
43.33,69.0
43.34,67.0
43.35,59.0
43.36,63.0
43.37,78.0
43.38,63.0
43.39,79.0
43.4,77.0
43.41,72.0
43.42,71.0
43.43,78.0
43.44,76.0
43.45,58.0
43.46,75.0
43.47,66.0
43.48,67.0
43.49,70.0
43.5,76.0
43.51,61.0
43.52,66.0
43.53,70.0
43.54,77.0
43.55,72.0
43.56,70.0
43.57,86.0
43.58,57.0
43.59,67.0
43.6,59.0
43.61,70.0
43.62,63.0
43.63,76.0
43.64,69.0
43.65,59.0
43.66,73.0
43.67,73.0
43.68,59.0
43.69,64.0
43.7,74.0
43.71,70.0
43.72,73.0
43.73,78.0
43.74,56.0
43.75,56.0
43.76,74.0
43.77,79.0
43.78,86.0
43.79,74.0
43.8,64.0
43.81,70.0
43.82,44.0
43.83,73.0
43.84,57.0
43.85,54.0
43.86,69.0
43.87,58.0
43.88,72.0
43.89,70.0
43.9,66.0
43.91,69.0
43.92,75.0
43.93,58.0
43.94,74.0
43.95,76.0
43.96,64.0
43.97,49.0
43.98,75.0
43.99,66.0
44.0,75.0
44.01,69.0
44.02,64.0
44.03,59.0
44.04,76.0
44.05,77.0
44.06,57.0
44.07,78.0
44.08,84.0
44.09,72.0
44.1,72.0
44.11,76.0
44.12,67.0
44.13,76.0
44.14,71.0
44.15,84.0
44.16,61.0
44.17,87.0
44.18,65.0
44.19,74.0
44.2,67.0
44.21,68.0
44.22,69.0
44.23,75.0
44.24,64.0
44.25,70.0
44.26,79.0
44.27,68.0
44.28,63.0
44.29,70.0
44.3,60.0
44.31,69.0
44.32,85.0
44.33,66.0
44.34,75.0
44.35,61.0
44.36,62.0
44.37,68.0
44.38,72.0
44.39,64.0
44.4,70.0
44.41,58.0
44.42,57.0
44.43,68.0
44.44,72.0
44.45,68.0
44.46,72.0
44.47,55.0
44.48,52.0
44.49,59.0
44.5,65.0
44.51,81.0
44.52,57.0
44.53,59.0
44.54,63.0
44.55,68.0
44.56,67.0
44.57,73.0
44.58,72.0
44.59,61.0
44.6,67.0
44.61,73.0
44.62,69.0
44.63,54.0
44.64,69.0
44.65,61.0
44.66,66.0
44.67,80.0
44.68,71.0
44.69,80.0
44.7,66.0
44.71,74.0
44.72,59.0
44.73,63.0
44.74,73.0
44.75,63.0
44.76,58.0
44.77,71.0
44.78,79.0
44.79,72.0
44.8,82.0
44.81,62.0
44.82,71.0
44.83,71.0
44.84,81.0
44.85,74.0
44.86,79.0
44.87,86.0
44.88,72.0
44.89,62.0
44.9,71.0
44.91,58.0
44.92,65.0
44.93,80.0
44.94,90.0
44.95,69.0
44.96,74.0
44.97,63.0
44.98,86.0
44.99,59.0
45.0,76.0
45.01,56.0
45.02,54.0
45.03,103.0
45.04,51.0
45.05,65.0
45.06,71.0
45.07,82.0
45.08,67.0
45.09,73.0
45.1,56.0
45.11,68.0
45.12,64.0
45.13,76.0
45.14,58.0
45.15,83.0
45.16,62.0
45.17,80.0
45.18,75.0
45.19,62.0
45.2,74.0
45.21,75.0
45.22,69.0
45.23,71.0
45.24,55.0
45.25,60.0
45.26,64.0
45.27,65.0
45.28,87.0
45.29,87.0
45.3,65.0
45.31,64.0
45.32,65.0
45.33,76.0
45.34,77.0
45.35,64.0
45.36,75.0
45.37,69.0
45.38,68.0
45.39,75.0
45.4,77.0
45.41,62.0
45.42,66.0
45.43,64.0
45.44,69.0
45.45,59.0
45.46,73.0
45.47,59.0
45.48,70.0
45.49,62.0
45.5,83.0
45.51,65.0
45.52,70.0
45.53,82.0
45.54,64.0
45.55,71.0
45.56,75.0
45.57,68.0
45.58,58.0
45.59,73.0
45.6,74.0
45.61,62.0
45.62,78.0
45.63,74.0
45.64,53.0
45.65,79.0
45.66,57.0
45.67,72.0
45.68,52.0
45.69,65.0
45.7,71.0
45.71,64.0
45.72,86.0
45.73,74.0
45.74,84.0
45.75,77.0
45.76,73.0
45.77,64.0
45.78,87.0
45.79,63.0
45.8,69.0
45.81,65.0
45.82,63.0
45.83,88.0
45.84,62.0
45.85,65.0
45.86,75.0
45.87,58.0
45.88,72.0
45.89,71.0
45.9,73.0
45.91,66.0
45.92,52.0
45.93,64.0
45.94,61.0
45.95,76.0
45.96,81.0
45.97,55.0
45.98,80.0
45.99,60.0
46.0,70.0
46.01,70.0
46.02,79.0
46.03,53.0
46.04,51.0
46.05,69.0
46.06,69.0
46.07,75.0
46.08,85.0
46.09,61.0
46.1,69.0
46.11,79.0
46.12,79.0
46.13,77.0
46.14,66.0
46.15,70.0
46.16,73.0
46.17,79.0
46.18,75.0
46.19,75.0
46.2,68.0
46.21,69.0
46.22,55.0
46.23,84.0
46.24,80.0
46.25,85.0
46.26,66.0
46.27,58.0
46.28,72.0
46.29,56.0
46.3,63.0
46.31,80.0
46.32,89.0
46.33,69.0
46.34,60.0
46.35,70.0
46.36,78.0
46.37,78.0
46.38,67.0
46.39,69.0
46.4,73.0
46.41,67.0
46.42,92.0
46.43,64.0
46.44,60.0
46.45,65.0
46.46,68.0
46.47,74.0
46.48,73.0
46.49,62.0
46.5,64.0
46.51,79.0
46.52,68.0
46.53,76.0
46.54,60.0
46.55,80.0
46.56,56.0
46.57,69.0
46.58,91.0
46.59,65.0
46.6,72.0
46.61,70.0
46.62,77.0
46.63,69.0
46.64,81.0
46.65,73.0
46.66,68.0
46.67,82.0
46.68,63.0
46.69,81.0
46.7,68.0
46.71,77.0
46.72,71.0
46.73,72.0
46.74,76.0
46.75,62.0
46.76,84.0
46.77,70.0
46.78,87.0
46.79,89.0
46.8,76.0
46.81,84.0
46.82,89.0
46.83,81.0
46.84,94.0
46.85,118.0
46.86,126.0
46.87,163.0
46.88,178.0
46.89,211.0
46.9,195.0
46.91,183.0
46.92,175.0
46.93,155.0
46.94,109.0
46.95,106.0
46.96,114.0
46.97,76.0
46.98,102.0
46.99,99.0
47.0,129.0
47.01,128.0
47.02,141.0
47.03,132.0
47.04,139.0
47.05,139.0
47.06,92.0
47.07,83.0
47.08,78.0
47.09,80.0
47.1,67.0
47.11,77.0
47.12,77.0
47.13,72.0
47.14,85.0
47.15,84.0
47.16,86.0
47.17,73.0
47.18,75.0
47.19,81.0
47.2,79.0
47.21,66.0
47.22,68.0
47.23,68.0
47.24,64.0
47.25,60.0
47.26,86.0
47.27,73.0
47.28,86.0
47.29,82.0
47.3,67.0
47.31,81.0
47.32,69.0
47.33,81.0
47.34,81.0
47.35,78.0
47.36,83.0
47.37,63.0
47.38,73.0
47.39,71.0
47.4,78.0
47.41,61.0
47.42,63.0
47.43,79.0
47.44,82.0
47.45,64.0
47.46,72.0
47.47,80.0
47.48,55.0
47.49,63.0
47.5,73.0
47.51,75.0
47.52,65.0
47.53,63.0
47.54,70.0
47.55,71.0
47.56,75.0
47.57,75.0
47.58,66.0
47.59,62.0
47.6,69.0
47.61,70.0
47.62,70.0
47.63,73.0
47.64,77.0
47.65,66.0
47.66,70.0
47.67,69.0
47.68,85.0
47.69,64.0
47.7,72.0
47.71,81.0
47.72,49.0
47.73,64.0
47.74,65.0
47.75,70.0
47.76,77.0
47.77,65.0
47.78,48.0
47.79,53.0
47.8,75.0
47.81,68.0
47.82,57.0
47.83,68.0
47.84,75.0
47.85,70.0
47.86,67.0
47.87,63.0
47.88,75.0
47.89,72.0
47.9,76.0
47.91,91.0
47.92,67.0
47.93,63.0
47.94,71.0
47.95,61.0
47.96,59.0
47.97,62.0
47.98,78.0
47.99,60.0
48.0,65.0
48.01,73.0
48.02,66.0
48.03,77.0
48.04,66.0
48.05,79.0
48.06,68.0
48.07,71.0
48.08,97.0
48.09,52.0
48.1,56.0
48.11,77.0
48.12,63.0
48.13,72.0
48.14,89.0
48.15,57.0
48.16,87.0
48.17,114.0
48.18,94.0
48.19,104.0
48.2,106.0
48.21,108.0
48.22,93.0
48.23,70.0
48.24,75.0
48.25,68.0
48.26,81.0
48.27,74.0
48.28,61.0
48.29,74.0
48.3,83.0
48.31,95.0
48.32,97.0
48.33,102.0
48.34,77.0
48.35,53.0
48.36,77.0
48.37,87.0
48.38,65.0
48.39,74.0
48.4,72.0
48.41,71.0
48.42,64.0
48.43,71.0
48.44,76.0
48.45,65.0
48.46,82.0
48.47,95.0
48.48,55.0
48.49,66.0
48.5,81.0
48.51,75.0
48.52,56.0
48.53,52.0
48.54,72.0
48.55,68.0
48.56,66.0
48.57,69.0
48.58,68.0
48.59,69.0
48.6,62.0
48.61,82.0
48.62,79.0
48.63,65.0
48.64,82.0
48.65,88.0
48.66,84.0
48.67,80.0
48.68,81.0
48.69,88.0
48.7,72.0
48.71,76.0
48.72,77.0
48.73,65.0
48.74,69.0
48.75,72.0
48.76,74.0
48.77,73.0
48.78,69.0
48.79,63.0
48.8,72.0
48.81,73.0
48.82,74.0
48.83,67.0
48.84,72.0
48.85,72.0
48.86,65.0
48.87,59.0
48.88,100.0
48.89,57.0
48.9,62.0
48.91,66.0
48.92,70.0
48.93,66.0
48.94,54.0
48.95,82.0
48.96,51.0
48.97,70.0
48.98,58.0
48.99,45.0
49.0,84.0
49.01,65.0
49.02,83.0
49.03,59.0
49.04,76.0
49.05,66.0
49.06,68.0
49.07,63.0
49.08,68.0
49.09,59.0
49.1,73.0
49.11,67.0
49.12,72.0
49.13,73.0
49.14,79.0
49.15,74.0
49.16,54.0
49.17,77.0
49.18,69.0
49.19,86.0
49.2,62.0
49.21,76.0
49.22,70.0
49.23,70.0
49.24,77.0
49.25,61.0
49.26,54.0
49.27,82.0
49.28,78.0
49.29,75.0
49.3,73.0
49.31,73.0
49.32,70.0
49.33,75.0
49.34,70.0
49.35,53.0
49.36,75.0
49.37,73.0
49.38,65.0
49.39,83.0
49.4,72.0
49.41,73.0
49.42,84.0
49.43,80.0
49.44,74.0
49.45,63.0
49.46,60.0
49.47,77.0
49.48,75.0
49.49,60.0
49.5,85.0
49.51,74.0
49.52,62.0
49.53,65.0
49.54,70.0
49.55,67.0
49.56,80.0
49.57,71.0
49.58,61.0
49.59,59.0
49.6,70.0
49.61,65.0
49.62,65.0
49.63,77.0
49.64,70.0
49.65,78.0
49.66,66.0
49.67,78.0
49.68,71.0
49.69,77.0
49.7,61.0
49.71,56.0
49.72,63.0
49.73,66.0
49.74,76.0
49.75,64.0
49.76,69.0
49.77,78.0
49.78,77.0
49.79,80.0
49.8,64.0
49.81,83.0
49.82,66.0
49.83,79.0
49.84,72.0
49.85,71.0
49.86,62.0
49.87,79.0
49.88,61.0
49.89,84.0
49.9,71.0
49.91,79.0
49.92,73.0
49.93,69.0
49.94,70.0
49.95,65.0
49.96,70.0
49.97,78.0
49.98,72.0
49.99,70.0
50.0,66.0
50.01,71.0
50.02,65.0
50.03,81.0
50.04,61.0
50.05,57.0
50.06,76.0
50.07,67.0
50.08,63.0
50.09,71.0
50.1,64.0
50.11,72.0
50.12,60.0
50.13,73.0
50.14,70.0
50.15,67.0
50.16,59.0
50.17,63.0
50.18,50.0
50.19,70.0
50.2,73.0
50.21,82.0
50.22,70.0
50.23,57.0
50.24,74.0
50.25,72.0
50.26,54.0
50.27,78.0
50.28,88.0
50.29,65.0
50.3,53.0
50.31,56.0
50.32,61.0
50.33,56.0
50.34,95.0
50.35,61.0
50.36,64.0
50.37,59.0
50.38,67.0
50.39,68.0
50.4,70.0
50.41,75.0
50.42,63.0
50.43,69.0
50.44,72.0
50.45,71.0
50.46,74.0
50.47,66.0
50.48,62.0
50.49,76.0
50.5,86.0
50.51,69.0
50.52,59.0
50.53,54.0
50.54,84.0
50.55,70.0
50.56,74.0
50.57,76.0
50.58,70.0
50.59,75.0
50.6,60.0
50.61,75.0
50.62,59.0
50.63,82.0
50.64,73.0
50.65,66.0
50.66,68.0
50.67,72.0
50.68,66.0
50.69,66.0
50.7,55.0
50.71,66.0
50.72,61.0
50.73,66.0
50.74,68.0
50.75,65.0
50.76,61.0
50.77,70.0
50.78,58.0
50.79,70.0
50.8,72.0
50.81,69.0
50.82,77.0
50.83,82.0
50.84,67.0
50.85,71.0
50.86,78.0
50.87,61.0
50.88,60.0
50.89,62.0
50.9,57.0
50.91,68.0
50.92,73.0
50.93,69.0
50.94,65.0
50.95,76.0
50.96,69.0
50.97,57.0
50.98,64.0
50.99,71.0
51.0,63.0
51.01,66.0
51.02,74.0
51.03,71.0
51.04,81.0
51.05,59.0
51.06,68.0
51.07,54.0
51.08,71.0
51.09,62.0
51.1,64.0
51.11,64.0
51.12,60.0
51.13,76.0
51.14,59.0
51.15,73.0
51.16,67.0
51.17,68.0
51.18,65.0
51.19,68.0
51.2,64.0
51.21,76.0
51.22,70.0
51.23,74.0
51.24,64.0
51.25,72.0
51.26,69.0
51.27,76.0
51.28,60.0
51.29,73.0
51.3,72.0
51.31,70.0
51.32,56.0
51.33,58.0
51.34,66.0
51.35,50.0
51.36,71.0
51.37,62.0
51.38,80.0
51.39,71.0
51.4,68.0
51.41,73.0
51.42,72.0
51.43,64.0
51.44,64.0
51.45,72.0
51.46,52.0
51.47,59.0
51.48,78.0
51.49,71.0
51.5,59.0
51.51,65.0
51.52,66.0
51.53,63.0
51.54,82.0
51.55,56.0
51.56,80.0
51.57,55.0
51.58,65.0
51.59,60.0
51.6,63.0
51.61,59.0
51.62,67.0
51.63,68.0
51.64,69.0
51.65,65.0
51.66,80.0
51.67,72.0
51.68,73.0
51.69,74.0
51.7,80.0
51.71,64.0
51.72,75.0
51.73,72.0
51.74,98.0
51.75,90.0
51.76,60.0
51.77,61.0
51.78,59.0
51.79,68.0
51.8,73.0
51.81,79.0
51.82,63.0
51.83,83.0
51.84,59.0
51.85,67.0
51.86,66.0
51.87,77.0
51.88,76.0
51.89,73.0
51.9,65.0
51.91,57.0
51.92,69.0
51.93,78.0
51.94,74.0
51.95,64.0
51.96,80.0
51.97,48.0
51.98,59.0
51.99,59.0
52.0,76.0
52.01,84.0
52.02,61.0
52.03,79.0
52.04,78.0
52.05,76.0
52.06,70.0
52.07,62.0
52.08,54.0
52.09,57.0
52.1,73.0
52.11,78.0
52.12,68.0
52.13,55.0
52.14,65.0
52.15,56.0
52.16,67.0
52.17,62.0
52.18,68.0
52.19,67.0
52.2,52.0
52.21,66.0
52.22,77.0
52.23,71.0
52.24,72.0
52.25,72.0
52.26,66.0
52.27,73.0
52.28,85.0
52.29,75.0
52.3,71.0
52.31,77.0
52.32,79.0
52.33,70.0
52.34,67.0
52.35,73.0
52.36,64.0
52.37,79.0
52.38,68.0
52.39,63.0
52.4,54.0
52.41,69.0
52.42,60.0
52.43,69.0
52.44,60.0
52.45,62.0
52.46,88.0
52.47,74.0
52.48,64.0
52.49,74.0
52.5,69.0
52.51,77.0
52.52,58.0
52.53,55.0
52.54,59.0
52.55,64.0
52.56,61.0
52.57,87.0
52.58,69.0
52.59,74.0
52.6,62.0
52.61,65.0
52.62,77.0
52.63,73.0
52.64,69.0
52.65,77.0
52.66,73.0
52.67,83.0
52.68,60.0
52.69,60.0
52.7,77.0
52.71,64.0
52.72,81.0
52.73,68.0
52.74,74.0
52.75,71.0
52.76,68.0
52.77,70.0
52.78,54.0
52.79,85.0
52.8,80.0
52.81,75.0
52.82,78.0
52.83,72.0
52.84,67.0
52.85,76.0
52.86,72.0
52.87,63.0
52.88,68.0
52.89,84.0
52.9,72.0
52.91,72.0
52.92,82.0
52.93,79.0
52.94,60.0
52.95,57.0
52.96,63.0
52.97,70.0
52.98,69.0
52.99,82.0
53.0,75.0
53.01,75.0
53.02,68.0
53.03,82.0
53.04,98.0
53.05,80.0
53.06,67.0
53.07,81.0
53.08,76.0
53.09,90.0
53.1,74.0
53.11,104.0
53.12,91.0
53.13,88.0
53.14,96.0
53.15,81.0
53.16,101.0
53.17,92.0
53.18,75.0
53.19,76.0
53.2,63.0
53.21,58.0
53.22,65.0
53.23,46.0
53.24,80.0
53.25,72.0
53.26,67.0
53.27,71.0
53.28,63.0
53.29,65.0
53.3,78.0
53.31,80.0
53.32,69.0
53.33,67.0
53.34,70.0
53.35,78.0
53.36,72.0
53.37,71.0
53.38,64.0
53.39,64.0
53.4,63.0
53.41,77.0
53.42,65.0
53.43,71.0
53.44,86.0
53.45,82.0
53.46,83.0
53.47,78.0
53.48,69.0
53.49,80.0
53.5,66.0
53.51,89.0
53.52,80.0
53.53,70.0
53.54,81.0
53.55,61.0
53.56,60.0
53.57,65.0
53.58,71.0
53.59,65.0
53.6,65.0
53.61,67.0
53.62,74.0
53.63,68.0
53.64,79.0
53.65,54.0
53.66,63.0
53.67,78.0
53.68,66.0
53.69,70.0
53.7,64.0
53.71,89.0
53.72,77.0
53.73,68.0
53.74,69.0
53.75,62.0
53.76,75.0
53.77,61.0
53.78,74.0
53.79,75.0
53.8,68.0
53.81,68.0
53.82,85.0
53.83,50.0
53.84,76.0
53.85,61.0
53.86,75.0
53.87,54.0
53.88,78.0
53.89,58.0
53.9,84.0
53.91,52.0
53.92,64.0
53.93,65.0
53.94,81.0
53.95,60.0
53.96,64.0
53.97,79.0
53.98,79.0
53.99,70.0
54.0,64.0
54.01,48.0
54.02,85.0
54.03,55.0
54.04,76.0
54.05,73.0
54.06,70.0
54.07,64.0
54.08,73.0
54.09,56.0
54.1,56.0
54.11,75.0
54.12,64.0
54.13,59.0
54.14,71.0
54.15,77.0
54.16,68.0
54.17,74.0
54.18,63.0
54.19,75.0
54.2,53.0
54.21,69.0
54.22,73.0
54.23,73.0
54.24,71.0
54.25,94.0
54.26,81.0
54.27,71.0
54.28,80.0
54.29,73.0
54.3,75.0
54.31,72.0
54.32,67.0
54.33,77.0
54.34,78.0
54.35,85.0
54.36,73.0
54.37,63.0
54.38,64.0
54.39,64.0
54.4,68.0
54.41,72.0
54.42,72.0
54.43,76.0
54.44,67.0
54.45,64.0
54.46,77.0
54.47,79.0
54.48,60.0
54.49,66.0
54.5,65.0
54.51,66.0
54.52,59.0
54.53,66.0
54.54,64.0
54.55,69.0
54.56,49.0
54.57,50.0
54.58,61.0
54.59,57.0
54.6,68.0
54.61,70.0
54.62,65.0
54.63,84.0
54.64,68.0
54.65,77.0
54.66,82.0
54.67,67.0
54.68,61.0
54.69,60.0
54.7,66.0
54.71,71.0
54.72,72.0
54.73,75.0
54.74,71.0
54.75,51.0
54.76,62.0
54.77,78.0
54.78,80.0
54.79,65.0
54.8,71.0
54.81,63.0
54.82,63.0
54.83,72.0
54.84,71.0
54.85,55.0
54.86,70.0
54.87,54.0
54.88,91.0
54.89,76.0
54.9,66.0
54.91,67.0
54.92,60.0
54.93,67.0
54.94,82.0
54.95,77.0
54.96,61.0
54.97,59.0
54.98,64.0
54.99,55.0
55.0,69.0
55.01,65.0
55.02,79.0
55.03,61.0
55.04,81.0
55.05,63.0
55.06,76.0
55.07,70.0
55.08,92.0
55.09,76.0
55.1,68.0
55.11,65.0
55.12,70.0
55.13,83.0
55.14,76.0
55.15,76.0
55.16,79.0
55.17,87.0
55.18,79.0
55.19,85.0
55.2,62.0
55.21,81.0
55.22,70.0
55.23,69.0
55.24,69.0
55.25,79.0
55.26,83.0
55.27,80.0
55.28,71.0
55.29,62.0
55.3,67.0
55.31,82.0
55.32,75.0
55.33,88.0
55.34,95.0
55.35,89.0
55.36,98.0
55.37,87.0
55.38,99.0
55.39,112.0
55.4,107.0
55.41,130.0
55.42,128.0
55.43,149.0
55.44,178.0
55.45,239.0
55.46,267.0
55.47,289.0
55.48,269.0
55.49,244.0
55.5,230.0
55.51,232.0
55.52,211.0
55.53,144.0
55.54,149.0
55.55,118.0
55.56,118.0
55.57,117.0
55.58,109.0
55.59,137.0
55.6,155.0
55.61,169.0
55.62,188.0
55.63,165.0
55.64,151.0
55.65,150.0
55.66,152.0
55.67,140.0
55.68,111.0
55.69,101.0
55.7,78.0
55.71,95.0
55.72,80.0
55.73,77.0
55.74,79.0
55.75,56.0
55.76,72.0
55.77,88.0
55.78,71.0
55.79,74.0
55.8,65.0
55.81,74.0
55.82,62.0
55.83,71.0
55.84,64.0
55.85,73.0
55.86,80.0
55.87,83.0
55.88,77.0
55.89,74.0
55.9,80.0
55.91,66.0
55.92,77.0
55.93,61.0
55.94,85.0
55.95,74.0
55.96,58.0
55.97,64.0
55.98,73.0
55.99,74.0
56.0,76.0
56.01,66.0
56.02,65.0
56.03,72.0
56.04,69.0
56.05,78.0
56.06,70.0
56.07,84.0
56.08,72.0
56.09,77.0
56.1,67.0
56.11,79.0
56.12,79.0
56.13,77.0
56.14,87.0
56.15,69.0
56.16,72.0
56.17,61.0
56.18,76.0
56.19,65.0
56.2,73.0
56.21,86.0
56.22,77.0
56.23,73.0
56.24,77.0
56.25,61.0
56.26,75.0
56.27,83.0
56.28,81.0
56.29,84.0
56.3,73.0
56.31,60.0
56.32,72.0
56.33,82.0
56.34,61.0
56.35,86.0
56.36,70.0
56.37,56.0
56.38,82.0
56.39,67.0
56.4,75.0
56.41,83.0
56.42,82.0
56.43,86.0
56.44,75.0
56.45,57.0
56.46,83.0
56.47,63.0
56.48,73.0
56.49,73.0
56.5,64.0
56.51,51.0
56.52,76.0
56.53,64.0
56.54,75.0
56.55,72.0
56.56,75.0
56.57,68.0
56.58,67.0
56.59,66.0
56.6,77.0
56.61,85.0
56.62,74.0
56.63,71.0
56.64,79.0
56.65,83.0
56.66,70.0
56.67,58.0
56.68,57.0
56.69,60.0
56.7,62.0
56.71,76.0
56.72,76.0
56.73,84.0
56.74,74.0
56.75,73.0
56.76,76.0
56.77,84.0
56.78,59.0
56.79,61.0
56.8,70.0
56.81,68.0
56.82,75.0
56.83,83.0
56.84,68.0
56.85,79.0
56.86,58.0
56.87,61.0
56.88,60.0
56.89,73.0
56.9,76.0
56.91,76.0
56.92,55.0
56.93,66.0
56.94,79.0
56.95,61.0
56.96,82.0
56.97,64.0
56.98,80.0
56.99,70.0
57.0,59.0
57.01,58.0
57.02,70.0
57.03,60.0
57.04,71.0
57.05,54.0
57.06,76.0
57.07,64.0
57.08,80.0
57.09,65.0
57.1,80.0
57.11,66.0
57.12,66.0
57.13,79.0
57.14,58.0
57.15,69.0
57.16,76.0
57.17,67.0
57.18,62.0
57.19,59.0
57.2,59.0
57.21,73.0
57.22,80.0
57.23,59.0
57.24,61.0
57.25,52.0
57.26,59.0
57.27,71.0
57.28,50.0
57.29,82.0
57.3,84.0
57.31,83.0
57.32,69.0
57.33,72.0
57.34,79.0
57.35,80.0
57.36,63.0
57.37,78.0
57.38,85.0
57.39,79.0
57.4,78.0
57.41,82.0
57.42,73.0
57.43,81.0
57.44,95.0
57.45,62.0
57.46,73.0
57.47,73.0
57.48,67.0
57.49,81.0
57.5,66.0
57.51,77.0
57.52,73.0
57.53,75.0
57.54,81.0
57.55,78.0
57.56,83.0
57.57,86.0
57.58,86.0
57.59,64.0
57.6,83.0
57.61,83.0
57.62,78.0
57.63,90.0
57.64,87.0
57.65,87.0
57.66,119.0
57.67,104.0
57.68,109.0
57.69,143.0
57.7,151.0
57.71,165.0
57.72,191.0
57.73,233.0
57.74,232.0
57.75,234.0
57.76,275.0
57.77,254.0
57.78,229.0
57.79,193.0
57.8,149.0
57.81,151.0
57.82,120.0
57.83,114.0
57.84,115.0
57.85,113.0
57.86,116.0
57.87,114.0
57.88,147.0
57.89,142.0
57.9,139.0
57.91,158.0
57.92,158.0
57.93,158.0
57.94,121.0
57.95,120.0
57.96,101.0
57.97,99.0
57.98,85.0
57.99,96.0
58.0,73.0
58.01,78.0
58.02,79.0
58.03,78.0
58.04,77.0
58.05,67.0
58.06,71.0
58.07,66.0
58.08,69.0
58.09,75.0
58.1,87.0
58.11,81.0
58.12,75.0
58.13,75.0
58.14,80.0
58.15,75.0
58.16,60.0
58.17,77.0
58.18,74.0
58.19,72.0
58.2,76.0
58.21,68.0
58.22,82.0
58.23,73.0
58.24,74.0
58.25,70.0
58.26,73.0
58.27,62.0
58.28,64.0
58.29,90.0
58.3,57.0
58.31,66.0
58.32,57.0
58.33,60.0
58.34,56.0
58.35,89.0
58.36,63.0
58.37,72.0
58.38,90.0
58.39,71.0
58.4,74.0
58.41,58.0
58.42,75.0
58.43,54.0
58.44,85.0
58.45,76.0
58.46,71.0
58.47,79.0
58.48,74.0
58.49,74.0
58.5,78.0
58.51,61.0
58.52,70.0
58.53,71.0
58.54,69.0
58.55,72.0
58.56,65.0
58.57,66.0
58.58,72.0
58.59,68.0
58.6,69.0
58.61,66.0
58.62,83.0
58.63,80.0
58.64,75.0
58.65,67.0
58.66,80.0
58.67,69.0
58.68,79.0
58.69,85.0
58.7,62.0
58.71,86.0
58.72,47.0
58.73,60.0
58.74,73.0
58.75,70.0
58.76,69.0
58.77,69.0
58.78,57.0
58.79,66.0
58.8,83.0
58.81,67.0
58.82,56.0
58.83,81.0
58.84,64.0
58.85,78.0
58.86,90.0
58.87,73.0
58.88,65.0
58.89,74.0
58.9,86.0
58.91,72.0
58.92,56.0
58.93,80.0
58.94,67.0
58.95,61.0
58.96,60.0
58.97,81.0
58.98,67.0
58.99,64.0
59.0,65.0
59.01,61.0
59.02,68.0
59.03,69.0
59.04,64.0
59.05,62.0
59.06,73.0
59.07,65.0
59.08,89.0
59.09,66.0
59.1,57.0
59.11,74.0
59.12,70.0
59.13,72.0
59.14,70.0
59.15,54.0
59.16,52.0
59.17,82.0
59.18,57.0
59.19,71.0
59.2,67.0
59.21,69.0
59.22,59.0
59.23,57.0
59.24,67.0
59.25,71.0
59.26,63.0
59.27,74.0
59.28,60.0
59.29,51.0
59.3,98.0
59.31,63.0
59.32,67.0
59.33,68.0
59.34,69.0
59.35,75.0
59.36,64.0
59.37,63.0
59.38,61.0
59.39,72.0
59.4,74.0
59.41,71.0
59.42,63.0
59.43,60.0
59.44,59.0
59.45,61.0
59.46,60.0
59.47,66.0
59.48,70.0
59.49,56.0
59.5,88.0
59.51,62.0
59.52,59.0
59.53,64.0
59.54,76.0
59.55,73.0
59.56,63.0
59.57,69.0
59.58,69.0
59.59,65.0
59.6,56.0
59.61,71.0
59.62,82.0
59.63,57.0
59.64,57.0
59.65,73.0
59.66,67.0
59.67,70.0
59.68,55.0
59.69,67.0
59.7,69.0
59.71,65.0
59.72,62.0
59.73,55.0
59.74,63.0
59.75,72.0
59.76,85.0
59.77,70.0
59.78,80.0
59.79,62.0
59.8,67.0
59.81,64.0
59.82,66.0
59.83,65.0
59.84,75.0
59.85,81.0
59.86,71.0
59.87,75.0
59.88,72.0
59.89,58.0
59.9,61.0
59.91,62.0
59.92,75.0
59.93,66.0
59.94,66.0
59.95,67.0
59.96,64.0
59.97,67.0
59.98,65.0
59.99,64.0
60.0,62.0
60.01,61.0
60.02,66.0
60.03,84.0
60.04,56.0
60.05,82.0
60.06,74.0
60.07,64.0
60.08,70.0
60.09,62.0
60.1,77.0
60.11,80.0
60.12,65.0
60.13,78.0
60.14,75.0
60.15,73.0
60.16,60.0
60.17,62.0
60.18,65.0
60.19,47.0
60.2,63.0
60.21,70.0
60.22,89.0
60.23,67.0
60.24,63.0
60.25,76.0
60.26,78.0
60.27,62.0
60.28,52.0
60.29,82.0
60.3,74.0
60.31,66.0
60.32,71.0
60.33,60.0
60.34,64.0
60.35,71.0
60.36,77.0
60.37,68.0
60.38,68.0
60.39,58.0
60.4,80.0
60.41,58.0
60.42,61.0
60.43,61.0
60.44,71.0
60.45,66.0
60.46,65.0
60.47,59.0
60.48,71.0
60.49,58.0
60.5,63.0
60.51,71.0
60.52,58.0
60.53,61.0
60.54,71.0
60.55,69.0
60.56,58.0
60.57,60.0
60.58,69.0
60.59,79.0
60.6,76.0
60.61,64.0
60.62,77.0
60.63,66.0
60.64,64.0
60.65,64.0
60.66,72.0
60.67,66.0
60.68,75.0
60.69,63.0
60.7,70.0
60.71,70.0
60.72,73.0
60.73,75.0
60.74,67.0
60.75,64.0
60.76,62.0
60.77,42.0
60.78,70.0
60.79,55.0
60.8,68.0
60.81,68.0
60.82,63.0
60.83,74.0
60.84,53.0
60.85,73.0
60.86,78.0
60.87,83.0
60.88,71.0
60.89,65.0
60.9,60.0
60.91,55.0
60.92,57.0
60.93,79.0
60.94,58.0
60.95,76.0
60.96,70.0
60.97,69.0
60.98,64.0
60.99,60.0
61.0,70.0
61.01,57.0
61.02,65.0
61.03,72.0
61.04,72.0
61.05,71.0
61.06,83.0
61.07,70.0
61.08,70.0
61.09,67.0
61.1,76.0
61.11,66.0
61.12,75.0
61.13,74.0
61.14,55.0
61.15,65.0
61.16,70.0
61.17,89.0
61.18,78.0
61.19,65.0
61.2,74.0
61.21,69.0
61.22,71.0
61.23,68.0
61.24,65.0
61.25,85.0
61.26,71.0
61.27,67.0
61.28,68.0
61.29,75.0
61.3,65.0
61.31,72.0
61.32,72.0
61.33,66.0
61.34,65.0
61.35,52.0
61.36,70.0
61.37,63.0
61.38,64.0
61.39,76.0
61.4,67.0
61.41,55.0
61.42,48.0
61.43,66.0
61.44,65.0
61.45,75.0
61.46,72.0
61.47,65.0
61.48,60.0
61.49,68.0
61.5,72.0
61.51,75.0
61.52,60.0
61.53,80.0
61.54,65.0
61.55,57.0
61.56,70.0
61.57,68.0
61.58,75.0
61.59,63.0
61.6,63.0
61.61,76.0
61.62,74.0
61.63,66.0
61.64,72.0
61.65,78.0
61.66,56.0
61.67,62.0
61.68,62.0
61.69,66.0
61.7,66.0
61.71,61.0
61.72,71.0
61.73,72.0
61.74,69.0
61.75,69.0
61.76,82.0
61.77,59.0
61.78,72.0
61.79,71.0
61.8,61.0
61.81,65.0
61.82,66.0
61.83,67.0
61.84,65.0
61.85,78.0
61.86,69.0
61.87,72.0
61.88,71.0
61.89,72.0
61.9,77.0
61.91,68.0
61.92,67.0
61.93,79.0
61.94,73.0
61.95,86.0
61.96,65.0
61.97,71.0
61.98,71.0
61.99,74.0
62.0,70.0
62.01,77.0
62.02,67.0
62.03,79.0
62.04,63.0
62.05,77.0
62.06,63.0
62.07,78.0
62.08,80.0
62.09,87.0
62.1,91.0
62.11,91.0
62.12,92.0
62.13,115.0
62.14,127.0
62.15,128.0
62.16,121.0
62.17,141.0
62.18,134.0
62.19,107.0
62.2,98.0
62.21,97.0
62.22,91.0
62.23,88.0
62.24,87.0
62.25,84.0
62.26,96.0
62.27,82.0
62.28,95.0
62.29,78.0
62.3,85.0
62.31,92.0
62.32,105.0
62.33,128.0
62.34,93.0
62.35,88.0
62.36,130.0
62.37,103.0
62.38,82.0
62.39,64.0
62.4,73.0
62.41,58.0
62.42,97.0
62.43,76.0
62.44,78.0
62.45,75.0
62.46,84.0
62.47,64.0
62.48,64.0
62.49,63.0
62.5,63.0
62.51,64.0
62.52,74.0
62.53,83.0
62.54,60.0
62.55,74.0
62.56,69.0
62.57,67.0
62.58,79.0
62.59,60.0
62.6,71.0
62.61,60.0
62.62,80.0
62.63,76.0
62.64,71.0
62.65,58.0
62.66,76.0
62.67,84.0
62.68,74.0
62.69,73.0
62.7,65.0
62.71,63.0
62.72,82.0
62.73,61.0
62.74,64.0
62.75,67.0
62.76,65.0
62.77,60.0
62.78,70.0
62.79,57.0
62.8,72.0
62.81,73.0
62.82,70.0
62.83,79.0
62.84,60.0
62.85,72.0
62.86,65.0
62.87,67.0
62.88,61.0
62.89,56.0
62.9,63.0
62.91,63.0
62.92,72.0
62.93,70.0
62.94,57.0
62.95,65.0
62.96,61.0
62.97,71.0
62.98,58.0
62.99,68.0
63.0,80.0
63.01,67.0
63.02,61.0
63.03,72.0
63.04,62.0
63.05,69.0
63.06,68.0
63.07,73.0
63.08,75.0
63.09,66.0
63.1,79.0
63.11,63.0
63.12,55.0
63.13,73.0
63.14,69.0
63.15,59.0
63.16,78.0
63.17,73.0
63.18,79.0
63.19,73.0
63.2,69.0
63.21,84.0
63.22,92.0
63.23,74.0
63.24,50.0
63.25,90.0
63.26,75.0
63.27,90.0
63.28,71.0
63.29,66.0
63.3,79.0
63.31,83.0
63.32,67.0
63.33,71.0
63.34,58.0
63.35,58.0
63.36,66.0
63.37,57.0
63.38,76.0
63.39,72.0
63.4,80.0
63.41,55.0
63.42,68.0
63.43,80.0
63.44,81.0
63.45,58.0
63.46,76.0
63.47,79.0
63.48,65.0
63.49,65.0
63.5,57.0
63.51,64.0
63.52,80.0
63.53,62.0
63.54,66.0
63.55,70.0
63.56,53.0
63.57,67.0
63.58,75.0
63.59,66.0
63.6,61.0
63.61,90.0
63.62,53.0
63.63,81.0
63.64,69.0
63.65,81.0
63.66,65.0
63.67,65.0
63.68,59.0
63.69,81.0
63.7,70.0
63.71,67.0
63.72,62.0
63.73,63.0
63.74,72.0
63.75,69.0
63.76,55.0
63.77,78.0
63.78,71.0
63.79,60.0
63.8,56.0
63.81,72.0
63.82,66.0
63.83,77.0
63.84,70.0
63.85,72.0
63.86,72.0
63.87,73.0
63.88,73.0
63.89,80.0
63.9,73.0
63.91,52.0
63.92,77.0
63.93,56.0
63.94,67.0
63.95,69.0
63.96,73.0
63.97,61.0
63.98,63.0
63.99,74.0
64.0,77.0
64.01,57.0
64.02,67.0
64.03,60.0
64.04,65.0
64.05,69.0
64.06,51.0
64.07,73.0
64.08,67.0
64.09,73.0
64.1,74.0
64.11,69.0
64.12,64.0
64.13,75.0
64.14,73.0
64.15,81.0
64.16,65.0
64.17,64.0
64.18,56.0
64.19,62.0
64.2,71.0
64.21,61.0
64.22,73.0
64.23,78.0
64.24,61.0
64.25,71.0
64.26,73.0
64.27,70.0
64.28,62.0
64.29,69.0
64.3,74.0
64.31,59.0
64.32,75.0
64.33,76.0
64.34,73.0
64.35,63.0
64.36,86.0
64.37,68.0
64.38,66.0
64.39,68.0
64.4,69.0
64.41,66.0
64.42,75.0
64.43,66.0
64.44,68.0
64.45,63.0
64.46,85.0
64.47,71.0
64.48,74.0
64.49,67.0
64.5,42.0
64.51,48.0
64.52,73.0
64.53,64.0
64.54,63.0
64.55,65.0
64.56,67.0
64.57,74.0
64.58,63.0
64.59,67.0
64.6,62.0
64.61,68.0
64.62,63.0
64.63,67.0
64.64,79.0
64.65,57.0
64.66,79.0
64.67,80.0
64.68,65.0
64.69,72.0
64.7,75.0
64.71,64.0
64.72,71.0
64.73,70.0
64.74,75.0
64.75,59.0
64.76,61.0
64.77,89.0
64.78,62.0
64.79,70.0
64.8,65.0
64.81,83.0
64.82,63.0
64.83,72.0
64.84,72.0
64.85,59.0
64.86,61.0
64.87,72.0
64.88,63.0
64.89,59.0
64.9,78.0
64.91,73.0
64.92,71.0
64.93,81.0
64.94,57.0
64.95,53.0
64.96,64.0
64.97,76.0
64.98,63.0
64.99,62.0
65.0,75.0
65.01,78.0
65.02,56.0
65.03,79.0
65.04,71.0
65.05,70.0
65.06,69.0
65.07,69.0
65.08,77.0
65.09,77.0
65.1,69.0
65.11,74.0
65.12,59.0
65.13,65.0
65.14,53.0
65.15,70.0
65.16,52.0
65.17,67.0
65.18,76.0
65.19,69.0
65.2,85.0
65.21,72.0
65.22,74.0
65.23,83.0
65.24,66.0
65.25,72.0
65.26,83.0
65.27,75.0
65.28,63.0
65.29,65.0
65.3,81.0
65.31,64.0
65.32,60.0
65.33,64.0
65.34,62.0
65.35,60.0
65.36,72.0
65.37,76.0
65.38,56.0
65.39,67.0
65.4,86.0
65.41,73.0
65.42,72.0
65.43,79.0
65.44,81.0
65.45,60.0
65.46,67.0
65.47,73.0
65.48,62.0
65.49,63.0
65.5,69.0
65.51,70.0
65.52,49.0
65.53,51.0
65.54,71.0
65.55,55.0
65.56,76.0
65.57,62.0
65.58,70.0
65.59,60.0
65.6,71.0
65.61,88.0
65.62,71.0
65.63,74.0
65.64,68.0
65.65,87.0
65.66,69.0
65.67,55.0
65.68,78.0
65.69,68.0
65.7,71.0
65.71,73.0
65.72,76.0
65.73,68.0
65.74,56.0
65.75,62.0
65.76,72.0
65.77,73.0
65.78,62.0
65.79,82.0
65.8,60.0
65.81,72.0
65.82,71.0
65.83,61.0
65.84,61.0
65.85,74.0
65.86,64.0
65.87,76.0
65.88,63.0
65.89,74.0
65.9,63.0
65.91,67.0
65.92,70.0
65.93,64.0
65.94,77.0
65.95,58.0
65.96,70.0
65.97,67.0
65.98,59.0
65.99,79.0
66.0,45.0
66.01,71.0
66.02,58.0
66.03,67.0
66.04,85.0
66.05,78.0
66.06,58.0
66.07,58.0
66.08,64.0
66.09,63.0
66.1,75.0
66.11,64.0
66.12,66.0
66.13,79.0
66.14,77.0
66.15,65.0
66.16,70.0
66.17,68.0
66.18,68.0
66.19,77.0
66.2,73.0
66.21,80.0
66.22,61.0
66.23,81.0
66.24,68.0
66.25,52.0
66.26,73.0
66.27,81.0
66.28,69.0
66.29,71.0
66.3,66.0
66.31,72.0
66.32,75.0
66.33,81.0
66.34,62.0
66.35,77.0
66.36,85.0
66.37,80.0
66.38,69.0
66.39,75.0
66.4,69.0
66.41,69.0
66.42,66.0
66.43,67.0
66.44,76.0
66.45,73.0
66.46,67.0
66.47,64.0
66.48,70.0
66.49,73.0
66.5,64.0
66.51,73.0
66.52,67.0
66.53,78.0
66.54,73.0
66.55,67.0
66.56,64.0
66.57,48.0
66.58,66.0
66.59,84.0
66.6,70.0
66.61,78.0
66.62,68.0
66.63,66.0
66.64,67.0
66.65,65.0
66.66,58.0
66.67,67.0
66.68,75.0
66.69,65.0
66.7,71.0
66.71,51.0
66.72,52.0
66.73,88.0
66.74,76.0
66.75,69.0
66.76,66.0
66.77,90.0
66.78,65.0
66.79,78.0
66.8,65.0
66.81,69.0
66.82,67.0
66.83,72.0
66.84,59.0
66.85,64.0
66.86,57.0
66.87,75.0
66.88,70.0
66.89,71.0
66.9,70.0
66.91,55.0
66.92,65.0
66.93,66.0
66.94,61.0
66.95,75.0
66.96,58.0
66.97,77.0
66.98,79.0
66.99,73.0
67.0,64.0
67.01,73.0
67.02,74.0
67.03,61.0
67.04,68.0
67.05,50.0
67.06,56.0
67.07,70.0
67.08,59.0
67.09,66.0
67.1,70.0
67.11,81.0
67.12,79.0
67.13,69.0
67.14,57.0
67.15,78.0
67.16,68.0
67.17,56.0
67.18,65.0
67.19,68.0
67.2,70.0
67.21,77.0
67.22,81.0
67.23,66.0
67.24,56.0
67.25,59.0
67.26,58.0
67.27,73.0
67.28,79.0
67.29,70.0
67.3,60.0
67.31,72.0
67.32,68.0
67.33,66.0
67.34,60.0
67.35,71.0
67.36,67.0
67.37,64.0
67.38,73.0
67.39,93.0
67.4,75.0
67.41,67.0
67.42,87.0
67.43,57.0
67.44,62.0
67.45,95.0
67.46,61.0
67.47,82.0
67.48,55.0
67.49,57.0
67.5,80.0
67.51,70.0
67.52,67.0
67.53,47.0
67.54,72.0
67.55,59.0
67.56,67.0
67.57,72.0
67.58,62.0
67.59,76.0
67.6,68.0
67.61,72.0
67.62,74.0
67.63,73.0
67.64,82.0
67.65,85.0
67.66,69.0
67.67,67.0
67.68,50.0
67.69,70.0
67.7,80.0
67.71,69.0
67.72,60.0
67.73,61.0
67.74,60.0
67.75,62.0
67.76,62.0
67.77,71.0
67.78,70.0
67.79,67.0
67.8,64.0
67.81,68.0
67.82,67.0
67.83,76.0
67.84,66.0
67.85,61.0
67.86,85.0
67.87,70.0
67.88,75.0
67.89,64.0
67.9,53.0
67.91,70.0
67.92,69.0
67.93,56.0
67.94,61.0
67.95,64.0
67.96,63.0
67.97,58.0
67.98,66.0
67.99,68.0
68.0,58.0
68.01,62.0
68.02,85.0
68.03,58.0
68.04,62.0
68.05,74.0
68.06,65.0
68.07,70.0
68.08,69.0
68.09,64.0
68.1,72.0
68.11,63.0
68.12,56.0
68.13,88.0
68.14,71.0
68.15,75.0
68.16,68.0
68.17,68.0
68.18,67.0
68.19,88.0
68.2,69.0
68.21,68.0
68.22,76.0
68.23,63.0
68.24,60.0
68.25,78.0
68.26,88.0
68.27,72.0
68.28,66.0
68.29,64.0
68.3,62.0
68.31,82.0
68.32,52.0
68.33,69.0
68.34,80.0
68.35,74.0
68.36,80.0
68.37,76.0
68.38,75.0
68.39,65.0
68.4,77.0
68.41,67.0
68.42,90.0
68.43,73.0
68.44,69.0
68.45,86.0
68.46,79.0
68.47,70.0
68.48,65.0
68.49,71.0
68.5,65.0
68.51,66.0
68.52,81.0
68.53,75.0
68.54,65.0
68.55,76.0
68.56,62.0
68.57,74.0
68.58,75.0
68.59,78.0
68.6,71.0
68.61,73.0
68.62,64.0
68.63,53.0
68.64,68.0
68.65,66.0
68.66,81.0
68.67,72.0
68.68,61.0
68.69,75.0
68.7,64.0
68.71,68.0
68.72,69.0
68.73,77.0
68.74,73.0
68.75,74.0
68.76,72.0
68.77,65.0
68.78,82.0
68.79,64.0
68.8,59.0
68.81,61.0
68.82,73.0
68.83,50.0
68.84,58.0
68.85,72.0
68.86,66.0
68.87,66.0
68.88,60.0
68.89,66.0
68.9,79.0
68.91,72.0
68.92,82.0
68.93,71.0
68.94,77.0
68.95,65.0
68.96,70.0
68.97,64.0
68.98,70.0
68.99,84.0
69.0,64.0
69.01,75.0
69.02,57.0
69.03,65.0
69.04,73.0
69.05,68.0
69.06,62.0
69.07,64.0
69.08,78.0
69.09,79.0
69.1,65.0
69.11,63.0
69.12,68.0
69.13,75.0
69.14,60.0
69.15,61.0
69.16,59.0
69.17,65.0
69.18,68.0
69.19,71.0
69.2,74.0
69.21,56.0
69.22,72.0
69.23,67.0
69.24,75.0
69.25,63.0
69.26,80.0
69.27,67.0
69.28,61.0
69.29,75.0
69.3,65.0
69.31,69.0
69.32,61.0
69.33,68.0
69.34,70.0
69.35,68.0
69.36,67.0
69.37,49.0
69.38,58.0
69.39,80.0
69.4,78.0
69.41,67.0
69.42,68.0
69.43,75.0
69.44,71.0
69.45,79.0
69.46,72.0
69.47,64.0
69.48,77.0
69.49,66.0
69.5,56.0
69.51,77.0
69.52,67.0
69.53,70.0
69.54,64.0
69.55,79.0
69.56,77.0
69.57,80.0
69.58,55.0
69.59,66.0
69.6,60.0
69.61,71.0
69.62,63.0
69.63,72.0
69.64,53.0
69.65,82.0
69.66,77.0
69.67,52.0
69.68,77.0
69.69,79.0
69.7,72.0
69.71,57.0
69.72,70.0
69.73,63.0
69.74,82.0
69.75,45.0
69.76,70.0
69.77,69.0
69.78,60.0
69.79,59.0
69.8,78.0
69.81,68.0
69.82,65.0
69.83,70.0
69.84,79.0
69.85,72.0
69.86,75.0
69.87,70.0
69.88,63.0
69.89,67.0
69.9,66.0
69.91,78.0
69.92,61.0
69.93,60.0
69.94,52.0
69.95,70.0
69.96,75.0
69.97,74.0
69.98,66.0
69.99,66.0
70.0,82.0
70.01,60.0
70.02,62.0
70.03,73.0
70.04,66.0
70.05,73.0
70.06,62.0
70.07,61.0
70.08,74.0
70.09,82.0
70.1,58.0
70.11,80.0
70.12,62.0
70.13,70.0
70.14,61.0
70.15,78.0
70.16,55.0
70.17,70.0
70.18,66.0
70.19,59.0
70.2,62.0
70.21,74.0
70.22,59.0
70.23,65.0
70.24,73.0
70.25,69.0
70.26,65.0
70.27,80.0
70.28,61.0
70.29,70.0
70.3,63.0
70.31,63.0
70.32,72.0
70.33,82.0
70.34,86.0
70.35,67.0
70.36,77.0
70.37,75.0
70.38,62.0
70.39,67.0
70.4,68.0
70.41,65.0
70.42,69.0
70.43,87.0
70.44,88.0
70.45,101.0
70.46,103.0
70.47,109.0
70.48,125.0
70.49,116.0
70.5,119.0
70.51,114.0
70.52,99.0
70.53,122.0
70.54,108.0
70.55,115.0
70.56,93.0
70.57,96.0
70.58,77.0
70.59,82.0
70.6,87.0
70.61,88.0
70.62,74.0
70.63,70.0
70.64,74.0
70.65,91.0
70.66,87.0
70.67,107.0
70.68,88.0
70.69,89.0
70.7,97.0
70.71,98.0
70.72,86.0
70.73,97.0
70.74,92.0
70.75,88.0
70.76,86.0
70.77,81.0
70.78,75.0
70.79,81.0
70.8,67.0
70.81,74.0
70.82,83.0
70.83,65.0
70.84,66.0
70.85,71.0
70.86,67.0
70.87,67.0
70.88,67.0
70.89,72.0
70.9,67.0
70.91,75.0
70.92,57.0
70.93,67.0
70.94,79.0
70.95,81.0
70.96,63.0
70.97,69.0
70.98,54.0
70.99,79.0
71.0,65.0
71.01,70.0
71.02,56.0
71.03,58.0
71.04,75.0
71.05,72.0
71.06,79.0
71.07,64.0
71.08,60.0
71.09,67.0
71.1,75.0
71.11,80.0
71.12,68.0
71.13,66.0
71.14,71.0
71.15,62.0
71.16,69.0
71.17,89.0
71.18,60.0
71.19,76.0
71.2,71.0
71.21,74.0
71.22,80.0
71.23,61.0
71.24,63.0
71.25,71.0
71.26,78.0
71.27,70.0
71.28,64.0
71.29,75.0
71.3,59.0
71.31,63.0
71.32,57.0
71.33,77.0
71.34,72.0
71.35,59.0
71.36,61.0
71.37,55.0
71.38,63.0
71.39,79.0
71.4,61.0
71.41,66.0
71.42,79.0
71.43,64.0
71.44,65.0
71.45,58.0
71.46,71.0
71.47,68.0
71.48,64.0
71.49,66.0
71.5,83.0
71.51,73.0
71.52,64.0
71.53,72.0
71.54,67.0
71.55,60.0
71.56,90.0
71.57,102.0
71.58,55.0
71.59,64.0
71.6,76.0
71.61,51.0
71.62,68.0
71.63,71.0
71.64,68.0
71.65,71.0
71.66,73.0
71.67,65.0
71.68,64.0
71.69,74.0
71.7,71.0
71.71,77.0
71.72,74.0
71.73,76.0
71.74,54.0
71.75,75.0
71.76,65.0
71.77,77.0
71.78,60.0
71.79,72.0
71.8,67.0
71.81,76.0
71.82,85.0
71.83,72.0
71.84,63.0
71.85,62.0
71.86,72.0
71.87,60.0
71.88,59.0
71.89,69.0
71.9,73.0
71.91,77.0
71.92,66.0
71.93,64.0
71.94,63.0
71.95,55.0
71.96,57.0
71.97,67.0
71.98,59.0
71.99,71.0
72.0,76.0
72.01,59.0
72.02,68.0
72.03,76.0
72.04,56.0
72.05,71.0
72.06,81.0
72.07,77.0
72.08,70.0
72.09,76.0
72.1,52.0
72.11,60.0
72.12,60.0
72.13,73.0
72.14,70.0
72.15,50.0
72.16,70.0
72.17,62.0
72.18,67.0
72.19,60.0
72.2,71.0
72.21,76.0
72.22,72.0
72.23,71.0
72.24,70.0
72.25,59.0
72.26,73.0
72.27,82.0
72.28,56.0
72.29,67.0
72.3,68.0
72.31,75.0
72.32,76.0
72.33,47.0
72.34,71.0
72.35,60.0
72.36,66.0
72.37,86.0
72.38,76.0
72.39,81.0
72.4,72.0
72.41,71.0
72.42,87.0
72.43,63.0
72.44,85.0
72.45,91.0
72.46,92.0
72.47,125.0
72.48,111.0
72.49,98.0
72.5,120.0
72.51,116.0
72.52,137.0
72.53,122.0
72.54,125.0
72.55,119.0
72.56,100.0
72.57,98.0
72.58,93.0
72.59,89.0
72.6,87.0
72.61,81.0
72.62,74.0
72.63,78.0
72.64,80.0
72.65,72.0
72.66,77.0
72.67,75.0
72.68,86.0
72.69,86.0
72.7,94.0
72.71,87.0
72.72,96.0
72.73,79.0
72.74,91.0
72.75,100.0
72.76,74.0
72.77,82.0
72.78,82.0
72.79,66.0
72.8,75.0
72.81,68.0
72.82,84.0
72.83,66.0
72.84,62.0
72.85,61.0
72.86,78.0
72.87,55.0
72.88,57.0
72.89,71.0
72.9,70.0
72.91,67.0
72.92,69.0
72.93,66.0
72.94,72.0
72.95,66.0
72.96,72.0
72.97,57.0
72.98,75.0
72.99,69.0
73.0,79.0
73.01,82.0
73.02,66.0
73.03,60.0
73.04,81.0
73.05,67.0
73.06,73.0
73.07,72.0
73.08,59.0
73.09,70.0
73.1,77.0
73.11,80.0
73.12,75.0
73.13,77.0
73.14,66.0
73.15,64.0
73.16,56.0
73.17,76.0
73.18,79.0
73.19,70.0
73.2,63.0
73.21,73.0
73.22,54.0
73.23,77.0
73.24,71.0
73.25,60.0
73.26,67.0
73.27,62.0
73.28,87.0
73.29,70.0
73.3,66.0
73.31,70.0
73.32,78.0
73.33,86.0
73.34,73.0
73.35,73.0
73.36,64.0
73.37,73.0
73.38,78.0
73.39,61.0
73.4,57.0
73.41,76.0
73.42,68.0
73.43,73.0
73.44,81.0
73.45,60.0
73.46,68.0
73.47,79.0
73.48,63.0
73.49,79.0
73.5,73.0
73.51,69.0
73.52,88.0
73.53,68.0
73.54,74.0
73.55,61.0
73.56,64.0
73.57,73.0
73.58,73.0
73.59,73.0
73.6,69.0
73.61,62.0
73.62,65.0
73.63,75.0
73.64,78.0
73.65,50.0
73.66,67.0
73.67,58.0
73.68,55.0
73.69,60.0
73.7,71.0
73.71,77.0
73.72,59.0
73.73,61.0
73.74,75.0
73.75,62.0
73.76,62.0
73.77,60.0
73.78,67.0
73.79,71.0
73.8,67.0
73.81,82.0
73.82,80.0
73.83,63.0
73.84,64.0
73.85,64.0
73.86,76.0
73.87,90.0
73.88,69.0
73.89,77.0
73.9,70.0
73.91,78.0
73.92,54.0
73.93,81.0
73.94,60.0
73.95,80.0
73.96,63.0
73.97,84.0
73.98,51.0
73.99,75.0
74.0,61.0
74.01,82.0
74.02,79.0
74.03,56.0
74.04,52.0
74.05,86.0
74.06,69.0
74.07,67.0
74.08,53.0
74.09,63.0
74.1,62.0
74.11,63.0
74.12,79.0
74.13,63.0
74.14,72.0
74.15,69.0
74.16,81.0
74.17,66.0
74.18,67.0
74.19,72.0
74.2,62.0
74.21,61.0
74.22,74.0
74.23,75.0
74.24,54.0
74.25,93.0
74.26,58.0
74.27,68.0
74.28,70.0
74.29,73.0
74.3,71.0
74.31,61.0
74.32,84.0
74.33,74.0
74.34,54.0
74.35,66.0
74.36,69.0
74.37,79.0
74.38,63.0
74.39,73.0
74.4,69.0
74.41,92.0
74.42,57.0
74.43,77.0
74.44,76.0
74.45,90.0
74.46,75.0
74.47,70.0
74.48,78.0
74.49,77.0
74.5,83.0
74.51,92.0
74.52,87.0
74.53,97.0
74.54,82.0
74.55,75.0
74.56,94.0
74.57,69.0
74.58,74.0
74.59,74.0
74.6,55.0
74.61,74.0
74.62,78.0
74.63,73.0
74.64,76.0
74.65,75.0
74.66,73.0
74.67,85.0
74.68,68.0
74.69,62.0
74.7,88.0
74.71,78.0
74.72,78.0
74.73,94.0
74.74,81.0
74.75,77.0
74.76,72.0
74.77,84.0
74.78,75.0
74.79,66.0
74.8,67.0
74.81,71.0
74.82,63.0
74.83,77.0
74.84,61.0
74.85,73.0
74.86,65.0
74.87,82.0
74.88,58.0
74.89,63.0
74.9,62.0
74.91,72.0
74.92,71.0
74.93,77.0
74.94,71.0
74.95,72.0
74.96,50.0
74.97,81.0
74.98,67.0
74.99,70.0
75.0,59.0
75.01,68.0
75.02,72.0
75.03,78.0
75.04,71.0
75.05,71.0
75.06,62.0
75.07,76.0
75.08,78.0
75.09,69.0
75.1,79.0
75.11,59.0
75.12,59.0
75.13,65.0
75.14,77.0
75.15,66.0
75.16,75.0
75.17,63.0
75.18,72.0
75.19,63.0
75.2,64.0
75.21,68.0
75.22,82.0
75.23,71.0
75.24,48.0
75.25,77.0
75.26,64.0
75.27,71.0
75.28,85.0
75.29,69.0
75.3,69.0
75.31,87.0
75.32,74.0
75.33,71.0
75.34,53.0
75.35,60.0
75.36,62.0
75.37,81.0
75.38,79.0
75.39,77.0
75.4,62.0
75.41,59.0
75.42,77.0
75.43,57.0
75.44,69.0
75.45,73.0
75.46,82.0
75.47,67.0
75.48,66.0
75.49,70.0
75.5,73.0
75.51,89.0
75.52,74.0
75.53,74.0
75.54,72.0
75.55,61.0
75.56,46.0
75.57,59.0
75.58,82.0
75.59,65.0
75.6,61.0
75.61,75.0
75.62,66.0
75.63,79.0
75.64,68.0
75.65,69.0
75.66,63.0
75.67,61.0
75.68,70.0
75.69,68.0
75.7,73.0
75.71,86.0
75.72,86.0
75.73,85.0
75.74,67.0
75.75,68.0
75.76,68.0
75.77,59.0
75.78,72.0
75.79,67.0
75.8,57.0
75.81,68.0
75.82,72.0
75.83,61.0
75.84,69.0
75.85,70.0
75.86,67.0
75.87,58.0
75.88,57.0
75.89,73.0
75.9,72.0
75.91,71.0
75.92,65.0
75.93,78.0
75.94,60.0
75.95,64.0
75.96,73.0
75.97,67.0
75.98,67.0
75.99,59.0
76.0,60.0
76.01,70.0
76.02,59.0
76.03,56.0
76.04,55.0
76.05,68.0
76.06,79.0
76.07,67.0
76.08,75.0
76.09,69.0
76.1,57.0
76.11,62.0
76.12,61.0
76.13,66.0
76.14,76.0
76.15,63.0
76.16,54.0
76.17,62.0
76.18,74.0
76.19,74.0
76.2,74.0
76.21,67.0
76.22,63.0
76.23,61.0
76.24,79.0
76.25,83.0
76.26,69.0
76.27,66.0
76.28,68.0
76.29,62.0
76.3,74.0
76.31,66.0
76.32,62.0
76.33,56.0
76.34,71.0
76.35,64.0
76.36,66.0
76.37,64.0
76.38,71.0
76.39,58.0
76.4,60.0
76.41,72.0
76.42,70.0
76.43,70.0
76.44,70.0
76.45,67.0
76.46,74.0
76.47,68.0
76.48,78.0
76.49,63.0
76.5,62.0
76.51,68.0
76.52,71.0
76.53,66.0
76.54,70.0
76.55,88.0
76.56,64.0
76.57,66.0
76.58,68.0
76.59,57.0
76.6,66.0
76.61,74.0
76.62,71.0
76.63,69.0
76.64,65.0
76.65,69.0
76.66,70.0
76.67,51.0
76.68,65.0
76.69,65.0
76.7,60.0
76.71,65.0
76.72,75.0
76.73,80.0
76.74,77.0
76.75,67.0
76.76,72.0
76.77,73.0
76.78,69.0
76.79,75.0
76.8,56.0
76.81,59.0
76.82,65.0
76.83,59.0
76.84,60.0
76.85,72.0
76.86,72.0
76.87,65.0
76.88,72.0
76.89,62.0
76.9,63.0
76.91,70.0
76.92,72.0
76.93,65.0
76.94,72.0
76.95,59.0
76.96,79.0
76.97,67.0
76.98,72.0
76.99,58.0
77.0,68.0
77.01,70.0
77.02,77.0
77.03,73.0
77.04,60.0
77.05,72.0
77.06,73.0
77.07,74.0
77.08,83.0
77.09,74.0
77.1,71.0
77.11,72.0
77.12,60.0
77.13,87.0
77.14,76.0
77.15,73.0
77.16,66.0
77.17,78.0
77.18,60.0
77.19,72.0
77.2,74.0
77.21,69.0
77.22,76.0
77.23,55.0
77.24,76.0
77.25,70.0
77.26,64.0
77.27,57.0
77.28,52.0
77.29,68.0
77.3,73.0
77.31,66.0
77.32,76.0
77.33,66.0
77.34,89.0
77.35,59.0
77.36,63.0
77.37,82.0
77.38,79.0
77.39,62.0
77.4,77.0
77.41,56.0
77.42,67.0
77.43,60.0
77.44,71.0
77.45,65.0
77.46,72.0
77.47,76.0
77.48,78.0
77.49,66.0
77.5,86.0
77.51,87.0
77.52,80.0
77.53,71.0
77.54,67.0
77.55,79.0
77.56,62.0
77.57,66.0
77.58,65.0
77.59,64.0
77.6,60.0
77.61,80.0
77.62,72.0
77.63,74.0
77.64,70.0
77.65,67.0
77.66,64.0
77.67,71.0
77.68,63.0
77.69,81.0
77.7,72.0
77.71,78.0
77.72,72.0
77.73,68.0
77.74,68.0
77.75,63.0
77.76,75.0
77.77,64.0
77.78,79.0
77.79,72.0
77.8,80.0
77.81,67.0
77.82,82.0
77.83,71.0
77.84,70.0
77.85,66.0
77.86,64.0
77.87,67.0
77.88,62.0
77.89,79.0
77.9,79.0
77.91,56.0
77.92,59.0
77.93,49.0
77.94,70.0
77.95,76.0
77.96,50.0
77.97,61.0
77.98,88.0
77.99,73.0
78.0,56.0
78.01,67.0
78.02,68.0
78.03,82.0
78.04,63.0
78.05,84.0
78.06,77.0
78.07,64.0
78.08,77.0
78.09,66.0
78.1,98.0
78.11,77.0
78.12,73.0
78.13,67.0
78.14,69.0
78.15,64.0
78.16,60.0
78.17,62.0
78.18,59.0
78.19,72.0
78.2,71.0
78.21,73.0
78.22,73.0
78.23,76.0
78.24,71.0
78.25,71.0
78.26,46.0
78.27,64.0
78.28,74.0
78.29,69.0
78.3,70.0
78.31,59.0
78.32,68.0
78.33,48.0
78.34,60.0
78.35,71.0
78.36,68.0
78.37,75.0
78.38,68.0
78.39,56.0
78.4,73.0
78.41,57.0
78.42,82.0
78.43,59.0
78.44,71.0
78.45,70.0
78.46,64.0
78.47,65.0
78.48,76.0
78.49,61.0
78.5,76.0
78.51,52.0
78.52,83.0
78.53,64.0
78.54,77.0
78.55,62.0
78.56,70.0
78.57,74.0
78.58,54.0
78.59,67.0
78.6,63.0
78.61,68.0
78.62,60.0
78.63,59.0
78.64,64.0
78.65,66.0
78.66,71.0
78.67,75.0
78.68,68.0
78.69,72.0
78.7,70.0
78.71,56.0
78.72,71.0
78.73,74.0
78.74,72.0
78.75,68.0
78.76,79.0
78.77,65.0
78.78,67.0
78.79,70.0
78.8,73.0
78.81,52.0
78.82,62.0
78.83,59.0
78.84,66.0
78.85,61.0
78.86,76.0
78.87,82.0
78.88,75.0
78.89,71.0
78.9,66.0
78.91,60.0
78.92,64.0
78.93,73.0
78.94,63.0
78.95,68.0
78.96,68.0
78.97,66.0
78.98,65.0
78.99,63.0
79.0,59.0
79.01,69.0
79.02,53.0
79.03,71.0
79.04,69.0
79.05,68.0
79.06,79.0
79.07,67.0
79.08,56.0
79.09,67.0
79.1,67.0
79.11,73.0
79.12,65.0
79.13,58.0
79.14,78.0
79.15,69.0
79.16,75.0
79.17,67.0
79.18,84.0
79.19,70.0
79.2,67.0
79.21,68.0
79.22,66.0
79.23,70.0
79.24,71.0
79.25,64.0
79.26,78.0
79.27,66.0
79.28,65.0
79.29,79.0
79.3,69.0
79.31,68.0
79.32,64.0
79.33,75.0
79.34,73.0
79.35,76.0
79.36,76.0
79.37,75.0
79.38,71.0
79.39,75.0
79.4,67.0
79.41,98.0
79.42,63.0
79.43,69.0
79.44,70.0
79.45,64.0
79.46,78.0
79.47,79.0
79.48,83.0
79.49,75.0
79.5,83.0
79.51,66.0
79.52,86.0
79.53,70.0
79.54,69.0
79.55,61.0
79.56,69.0
79.57,73.0
79.58,59.0
79.59,63.0
79.6,67.0
79.61,83.0
79.62,71.0
79.63,57.0
79.64,72.0
79.65,67.0
79.66,74.0
79.67,72.0
79.68,77.0
79.69,69.0
79.7,71.0
79.71,66.0
79.72,65.0
79.73,59.0
79.74,81.0
79.75,67.0
79.76,69.0
79.77,76.0
79.78,62.0
79.79,75.0
79.8,61.0
79.81,81.0
79.82,64.0
79.83,67.0
79.84,59.0
79.85,77.0
79.86,63.0
79.87,71.0
79.88,59.0
79.89,71.0
79.9,70.0
79.91,72.0
79.92,67.0
79.93,70.0
79.94,61.0
79.95,62.0
79.96,75.0
79.97,78.0
79.98,69.0
79.99,60.0
80.0,60.0
80.01,67.0
80.02,78.0
80.03,62.0
80.04,75.0
80.05,79.0
80.06,73.0
80.07,61.0
80.08,63.0
80.09,58.0
80.1,77.0
80.11,50.0
80.12,71.0
80.13,82.0
80.14,79.0
80.15,61.0
80.16,54.0
80.17,82.0
80.18,78.0
80.19,71.0
80.2,80.0
80.21,64.0
80.22,69.0
80.23,73.0
80.24,66.0
80.25,75.0
80.26,77.0
80.27,81.0
80.28,52.0
80.29,63.0
80.3,54.0
80.31,54.0
80.32,76.0
80.33,74.0
80.34,56.0
80.35,69.0
80.36,58.0
80.37,64.0
80.38,57.0
80.39,72.0
80.4,68.0
80.41,65.0
80.42,66.0
80.43,73.0
80.44,55.0
80.45,62.0
80.46,67.0
80.47,74.0
80.48,64.0
80.49,81.0
80.5,69.0
80.51,45.0
80.52,72.0
80.53,65.0
80.54,74.0
80.55,83.0
80.56,64.0
80.57,69.0
80.58,73.0
80.59,68.0
80.6,68.0
80.61,63.0
80.62,65.0
80.63,63.0
80.64,51.0
80.65,62.0
80.66,65.0
80.67,49.0
80.68,73.0
80.69,65.0
80.7,62.0
80.71,72.0
80.72,84.0
80.73,67.0
80.74,68.0
80.75,65.0
80.76,53.0
80.77,63.0
80.78,62.0
80.79,72.0
80.8,68.0
80.81,73.0
80.82,62.0
80.83,68.0
80.84,64.0
80.85,57.0
80.86,63.0
80.87,67.0
80.88,71.0
80.89,67.0
80.9,72.0
80.91,67.0
80.92,69.0
80.93,50.0
80.94,84.0
80.95,75.0
80.96,63.0
80.97,65.0
80.98,53.0
80.99,58.0
81.0,69.0
81.01,63.0
81.02,71.0
81.03,81.0
81.04,60.0
81.05,58.0
81.06,73.0
81.07,74.0
81.08,84.0
81.09,75.0
81.1,68.0
81.11,59.0
81.12,57.0
81.13,64.0
81.14,72.0
81.15,75.0
81.16,67.0
81.17,67.0
81.18,52.0
81.19,75.0
81.2,83.0
81.21,63.0
81.22,76.0
81.23,54.0
81.24,64.0
81.25,67.0
81.26,73.0
81.27,68.0
81.28,58.0
81.29,65.0
81.3,70.0
81.31,62.0
81.32,67.0
81.33,84.0
81.34,85.0
81.35,62.0
81.36,66.0
81.37,50.0
81.38,81.0
81.39,70.0
81.4,65.0
81.41,60.0
81.42,66.0
81.43,70.0
81.44,80.0
81.45,72.0
81.46,65.0
81.47,64.0
81.48,76.0
81.49,80.0
81.5,58.0
81.51,63.0
81.52,73.0
81.53,60.0
81.54,78.0
81.55,76.0
81.56,62.0
81.57,74.0
81.58,61.0
81.59,65.0
81.6,85.0
81.61,73.0
81.62,85.0
81.63,79.0
81.64,73.0
81.65,68.0
81.66,74.0
81.67,58.0
81.68,73.0
81.69,74.0
81.7,63.0
81.71,70.0
81.72,57.0
81.73,68.0
81.74,63.0
81.75,65.0
81.76,69.0
81.77,63.0
81.78,56.0
81.79,58.0
81.8,54.0
81.81,86.0
81.82,75.0
81.83,71.0
81.84,63.0
81.85,67.0
81.86,56.0
81.87,62.0
81.88,66.0
81.89,70.0
81.9,64.0
81.91,80.0
81.92,71.0
81.93,67.0
81.94,64.0
81.95,75.0
81.96,63.0
81.97,78.0
81.98,71.0
81.99,80.0
82.0,71.0
82.01,64.0
82.02,67.0
82.03,71.0
82.04,67.0
82.05,67.0
82.06,59.0
82.07,83.0
82.08,56.0
82.09,77.0
82.1,74.0
82.11,79.0
82.12,62.0
82.13,66.0
82.14,62.0
82.15,53.0
82.16,53.0
82.17,62.0
82.18,57.0
82.19,69.0
82.2,67.0
82.21,55.0
82.22,73.0
82.23,73.0
82.24,64.0
82.25,67.0
82.26,81.0
82.27,77.0
82.28,65.0
82.29,71.0
82.3,65.0
82.31,65.0
82.32,54.0
82.33,60.0
82.34,58.0
82.35,63.0
82.36,58.0
82.37,79.0
82.38,76.0
82.39,75.0
82.4,76.0
82.41,83.0
82.42,84.0
82.43,58.0
82.44,81.0
82.45,63.0
82.46,66.0
82.47,72.0
82.48,71.0
82.49,78.0
82.5,74.0
82.51,70.0
82.52,84.0
82.53,71.0
82.54,79.0
82.55,56.0
82.56,69.0
82.57,71.0
82.58,56.0
82.59,64.0
82.6,73.0
82.61,73.0
82.62,72.0
82.63,59.0
82.64,62.0
82.65,63.0
82.66,57.0
82.67,72.0
82.68,71.0
82.69,71.0
82.7,80.0
82.71,65.0
82.72,66.0
82.73,62.0
82.74,63.0
82.75,48.0
82.76,72.0
82.77,65.0
82.78,72.0
82.79,73.0
82.8,55.0
82.81,58.0
82.82,77.0
82.83,63.0
82.84,82.0
82.85,57.0
82.86,72.0
82.87,67.0
82.88,59.0
82.89,59.0
82.9,70.0
82.91,83.0
82.92,61.0
82.93,69.0
82.94,64.0
82.95,69.0
82.96,65.0
82.97,61.0
82.98,77.0
82.99,70.0
83.0,65.0
83.01,58.0
83.02,56.0
83.03,79.0
83.04,76.0
83.05,73.0
83.06,74.0
83.07,72.0
83.08,63.0
83.09,51.0
83.1,90.0
83.11,68.0
83.12,56.0
83.13,62.0
83.14,61.0
83.15,79.0
83.16,73.0
83.17,68.0
83.18,81.0
83.19,59.0
83.2,80.0
83.21,76.0
83.22,81.0
83.23,76.0
83.24,86.0
83.25,68.0
83.26,78.0
83.27,70.0
83.28,65.0
83.29,80.0
83.3,52.0
83.31,64.0
83.32,66.0
83.33,52.0
83.34,66.0
83.35,69.0
83.36,75.0
83.37,64.0
83.38,67.0
83.39,62.0
83.4,73.0
83.41,70.0
83.42,53.0
83.43,57.0
83.44,67.0
83.45,64.0
83.46,79.0
83.47,64.0
83.48,76.0
83.49,73.0
83.5,69.0
83.51,70.0
83.52,58.0
83.53,68.0
83.54,72.0
83.55,71.0
83.56,67.0
83.57,54.0
83.58,71.0
83.59,78.0
83.6,65.0
83.61,60.0
83.62,63.0
83.63,66.0
83.64,76.0
83.65,75.0
83.66,45.0
83.67,75.0
83.68,58.0
83.69,62.0
83.7,62.0
83.71,67.0
83.72,69.0
83.73,72.0
83.74,55.0
83.75,80.0
83.76,78.0
83.77,64.0
83.78,83.0
83.79,70.0
83.8,60.0
83.81,78.0
83.82,70.0
83.83,67.0
83.84,71.0
83.85,61.0
83.86,66.0
83.87,61.0
83.88,67.0
83.89,78.0
83.9,90.0
83.91,55.0
83.92,82.0
83.93,66.0
83.94,48.0
83.95,68.0
83.96,83.0
83.97,65.0
83.98,76.0
83.99,59.0
84.0,73.0
84.01,62.0
84.02,68.0
84.03,70.0
84.04,61.0
84.05,77.0
84.06,69.0
84.07,50.0
84.08,91.0
84.09,62.0
84.1,72.0
84.11,79.0
84.12,76.0
84.13,71.0
84.14,66.0
84.15,77.0
84.16,72.0
84.17,71.0
84.18,79.0
84.19,53.0
84.2,58.0
84.21,70.0
84.22,59.0
84.23,69.0
84.24,67.0
84.25,76.0
84.26,77.0
84.27,51.0
84.28,53.0
84.29,61.0
84.3,64.0
84.31,70.0
84.32,60.0
84.33,64.0
84.34,65.0
84.35,48.0
84.36,69.0
84.37,69.0
84.38,62.0
84.39,78.0
84.4,70.0
84.41,68.0
84.42,68.0
84.43,78.0
84.44,76.0
84.45,71.0
84.46,64.0
84.47,76.0
84.48,81.0
84.49,76.0
84.5,56.0
84.51,60.0
84.52,67.0
84.53,62.0
84.54,72.0
84.55,65.0
84.56,76.0
84.57,57.0
84.58,69.0
84.59,69.0
84.6,65.0
84.61,74.0
84.62,81.0
84.63,56.0
84.64,80.0
84.65,68.0
84.66,82.0
84.67,61.0
84.68,73.0
84.69,66.0
84.7,60.0
84.71,63.0
84.72,59.0
84.73,69.0
84.74,68.0
84.75,58.0
84.76,81.0
84.77,68.0
84.78,64.0
84.79,81.0
84.8,62.0
84.81,53.0
84.82,79.0
84.83,69.0
84.84,71.0
84.85,65.0
84.86,60.0
84.87,77.0
84.88,61.0
84.89,70.0
84.9,53.0
84.91,60.0
84.92,61.0
84.93,82.0
84.94,65.0
84.95,74.0
84.96,55.0
84.97,77.0
84.98,62.0
84.99,55.0
85.0,48.0
85.01,70.0
85.02,68.0
85.03,62.0
85.04,72.0
85.05,62.0
85.06,64.0
85.07,59.0
85.08,51.0
85.09,58.0
85.1,82.0
85.11,74.0
85.12,77.0
85.13,57.0
85.14,79.0
85.15,53.0
85.16,75.0
85.17,78.0
85.18,85.0
85.19,75.0
85.2,68.0
85.21,58.0
85.22,60.0
85.23,79.0
85.24,76.0
85.25,67.0
85.26,70.0
85.27,63.0
85.28,61.0
85.29,69.0
85.3,66.0
85.31,58.0
85.32,60.0
85.33,77.0
85.34,71.0
85.35,65.0
85.36,63.0
85.37,67.0
85.38,68.0
85.39,73.0
85.4,71.0
85.41,80.0
85.42,66.0
85.43,70.0
85.44,72.0
85.45,69.0
85.46,75.0
85.47,60.0
85.48,73.0
85.49,73.0
85.5,64.0
85.51,66.0
85.52,65.0
85.53,84.0
85.54,64.0
85.55,62.0
85.56,66.0
85.57,78.0
85.58,67.0
85.59,65.0
85.6,76.0
85.61,58.0
85.62,76.0
85.63,66.0
85.64,75.0
85.65,67.0
85.66,65.0
85.67,56.0
85.68,59.0
85.69,62.0
85.7,77.0
85.71,73.0
85.72,68.0
85.73,64.0
85.74,62.0
85.75,77.0
85.76,60.0
85.77,67.0
85.78,73.0
85.79,74.0
85.8,63.0
85.81,72.0
85.82,61.0
85.83,75.0
85.84,74.0
85.85,78.0
85.86,72.0
85.87,64.0
85.88,70.0
85.89,64.0
85.9,64.0
85.91,63.0
85.92,57.0
85.93,75.0
85.94,81.0
85.95,76.0
85.96,68.0
85.97,59.0
85.98,80.0
85.99,70.0
86.0,76.0
86.01,70.0
86.02,82.0
86.03,67.0
86.04,66.0
86.05,77.0
86.06,67.0
86.07,73.0
86.08,73.0
86.09,61.0
86.1,78.0
86.11,78.0
86.12,71.0
86.13,73.0
86.14,60.0
86.15,75.0
86.16,65.0
86.17,60.0
86.18,70.0
86.19,54.0
86.2,66.0
86.21,62.0
86.22,72.0
86.23,81.0
86.24,69.0
86.25,69.0
86.26,55.0
86.27,65.0
86.28,75.0
86.29,82.0
86.3,78.0
86.31,71.0
86.32,71.0
86.33,60.0
86.34,67.0
86.35,73.0
86.36,69.0
86.37,71.0
86.38,62.0
86.39,70.0
86.4,67.0
86.41,70.0
86.42,69.0
86.43,72.0
86.44,58.0
86.45,70.0
86.46,70.0
86.47,63.0
86.48,70.0
86.49,73.0
86.5,81.0
86.51,68.0
86.52,72.0
86.53,60.0
86.54,73.0
86.55,62.0
86.56,69.0
86.57,56.0
86.58,66.0
86.59,55.0
86.6,81.0
86.61,69.0
86.62,64.0
86.63,65.0
86.64,64.0
86.65,65.0
86.66,57.0
86.67,79.0
86.68,77.0
86.69,85.0
86.7,83.0
86.71,71.0
86.72,72.0
86.73,71.0
86.74,54.0
86.75,54.0
86.76,62.0
86.77,71.0
86.78,55.0
86.79,62.0
86.8,89.0
86.81,68.0
86.82,64.0
86.83,58.0
86.84,55.0
86.85,73.0
86.86,57.0
86.87,68.0
86.88,78.0
86.89,84.0
86.9,74.0
86.91,66.0
86.92,63.0
86.93,80.0
86.94,62.0
86.95,62.0
86.96,76.0
86.97,68.0
86.98,77.0
86.99,77.0
87.0,64.0
87.01,65.0
87.02,79.0
87.03,89.0
87.04,64.0
87.05,69.0
87.06,65.0
87.07,62.0
87.08,67.0
87.09,50.0
87.1,64.0
87.11,79.0
87.12,71.0
87.13,72.0
87.14,70.0
87.15,79.0
87.16,74.0
87.17,66.0
87.18,68.0
87.19,71.0
87.2,85.0
87.21,58.0
87.22,63.0
87.23,63.0
87.24,56.0
87.25,59.0
87.26,54.0
87.27,76.0
87.28,63.0
87.29,56.0
87.3,60.0
87.31,78.0
87.32,59.0
87.33,60.0
87.34,76.0
87.35,76.0
87.36,71.0
87.37,70.0
87.38,74.0
87.39,83.0
87.4,57.0
87.41,72.0
87.42,55.0
87.43,87.0
87.44,66.0
87.45,67.0
87.46,62.0
87.47,76.0
87.48,64.0
87.49,63.0
87.5,67.0
87.51,75.0
87.52,69.0
87.53,82.0
87.54,72.0
87.55,79.0
87.56,63.0
87.57,77.0
87.58,68.0
87.59,62.0
87.6,75.0
87.61,76.0
87.62,62.0
87.63,78.0
87.64,72.0
87.65,73.0
87.66,55.0
87.67,67.0
87.68,62.0
87.69,69.0
87.7,79.0
87.71,67.0
87.72,66.0
87.73,60.0
87.74,61.0
87.75,55.0
87.76,84.0
87.77,76.0
87.78,64.0
87.79,60.0
87.8,75.0
87.81,85.0
87.82,81.0
87.83,68.0
87.84,64.0
87.85,96.0
87.86,60.0
87.87,76.0
87.88,85.0
87.89,80.0
87.9,72.0
87.91,79.0
87.92,83.0
87.93,78.0
87.94,80.0
87.95,74.0
87.96,91.0
87.97,78.0
87.98,105.0
87.99,100.0
88.0,111.0
88.01,108.0
88.02,128.0
88.03,183.0
88.04,196.0
88.05,182.0
88.06,199.0
88.07,182.0
88.08,149.0
88.09,129.0
88.1,127.0
88.11,108.0
88.12,102.0
88.13,97.0
88.14,93.0
88.15,71.0
88.16,66.0
88.17,84.0
88.18,62.0
88.19,80.0
88.2,80.0
88.21,81.0
88.22,78.0
88.23,84.0
88.24,79.0
88.25,85.0
88.26,84.0
88.27,85.0
88.28,81.0
88.29,92.0
88.3,125.0
88.31,121.0
88.32,137.0
88.33,130.0
88.34,130.0
88.35,120.0
88.36,92.0
88.37,83.0
88.38,101.0
88.39,90.0
88.4,86.0
88.41,88.0
88.42,86.0
88.43,79.0
88.44,76.0
88.45,80.0
88.46,80.0
88.47,76.0
88.48,81.0
88.49,61.0
88.5,76.0
88.51,73.0
88.52,52.0
88.53,78.0
88.54,69.0
88.55,70.0
88.56,61.0
88.57,62.0
88.58,54.0
88.59,68.0
88.6,68.0
88.61,73.0
88.62,61.0
88.63,56.0
88.64,76.0
88.65,63.0
88.66,80.0
88.67,82.0
88.68,67.0
88.69,73.0
88.7,50.0
88.71,88.0
88.72,64.0
88.73,56.0
88.74,60.0
88.75,64.0
88.76,71.0
88.77,82.0
88.78,85.0
88.79,67.0
88.8,67.0
88.81,60.0
88.82,74.0
88.83,58.0
88.84,64.0
88.85,73.0
88.86,80.0
88.87,66.0
88.88,65.0
88.89,76.0
88.9,70.0
88.91,76.0
88.92,58.0
88.93,61.0
88.94,71.0
88.95,73.0
88.96,60.0
88.97,73.0
88.98,72.0
88.99,70.0
89.0,57.0
89.01,82.0
89.02,79.0
89.03,77.0
89.04,82.0
89.05,75.0
89.06,70.0
89.07,70.0
89.08,69.0
89.09,66.0
89.1,69.0
89.11,73.0
89.12,63.0
89.13,65.0
89.14,66.0
89.15,72.0
89.16,77.0
89.17,57.0
89.18,69.0
89.19,81.0
89.2,67.0
89.21,73.0
89.22,76.0
89.23,53.0
89.24,64.0
89.25,51.0
89.26,64.0
89.27,74.0
89.28,63.0
89.29,65.0
89.3,55.0
89.31,72.0
89.32,65.0
89.33,71.0
89.34,68.0
89.35,63.0
89.36,55.0
89.37,69.0
89.38,75.0
89.39,66.0
89.4,54.0
89.41,75.0
89.42,73.0
89.43,77.0
89.44,67.0
89.45,60.0
89.46,70.0
89.47,77.0
89.48,67.0
89.49,73.0
89.5,65.0
89.51,83.0
89.52,56.0
89.53,73.0
89.54,60.0
89.55,67.0
89.56,84.0
89.57,74.0
89.58,77.0
89.59,71.0
89.6,64.0
89.61,80.0
89.62,55.0
89.63,64.0
89.64,61.0
89.65,70.0
89.66,86.0
89.67,69.0
89.68,66.0
89.69,72.0
89.7,84.0
89.71,64.0
89.72,74.0
89.73,90.0
89.74,77.0
89.75,90.0
89.76,81.0
89.77,66.0
89.78,72.0
89.79,72.0
89.8,68.0
89.81,63.0
89.82,76.0
89.83,68.0
89.84,87.0
89.85,79.0
89.86,63.0
89.87,87.0
89.88,101.0
89.89,91.0
89.9,106.0
89.91,89.0
89.92,107.0
89.93,106.0
89.94,125.0
89.95,108.0
89.96,126.0
89.97,122.0
89.98,103.0
89.99,116.0
90.0,96.0
