angle,intensity
5.0,63.0
5.01,62.0
5.02,64.0
5.03,49.0
5.04,70.0
5.05,48.0
5.06,52.0
5.07,64.0
5.08,65.0
5.09,62.0
5.1,55.0
5.11,59.0
5.12,63.0
5.13,75.0
5.14,54.0
5.15,67.0
5.16,74.0
5.17,46.0
5.18,66.0
5.19,56.0
5.2,56.0
5.21,66.0
5.22,71.0
5.23,70.0
5.24,50.0
5.25,71.0
5.26,62.0
5.27,60.0
5.28,53.0
5.29,53.0
5.3,55.0
5.31,84.0
5.32,68.0
5.33,60.0
5.34,53.0
5.35,68.0
5.36,55.0
5.37,71.0
5.38,61.0
5.39,79.0
5.4,51.0
5.41,61.0
5.42,48.0
5.43,78.0
5.44,54.0
5.45,74.0
5.46,54.0
5.47,71.0
5.48,64.0
5.49,72.0
5.5,55.0
5.51,59.0
5.52,75.0
5.53,68.0
5.54,60.0
5.55,69.0
5.56,63.0
5.57,82.0
5.58,51.0
5.59,69.0
5.6,62.0
5.61,78.0
5.62,63.0
5.63,60.0
5.64,61.0
5.65,65.0
5.66,65.0
5.67,62.0
5.68,53.0
5.69,76.0
5.7,88.0
5.71,47.0
5.72,55.0
5.73,65.0
5.74,72.0
5.75,56.0
5.76,63.0
5.77,64.0
5.78,56.0
5.79,54.0
5.8,70.0
5.81,62.0
5.82,74.0
5.83,62.0
5.84,71.0
5.85,80.0
5.86,65.0
5.87,63.0
5.88,72.0
5.89,58.0
5.9,65.0
5.91,60.0
5.92,67.0
5.93,69.0
5.94,60.0
5.95,65.0
5.96,64.0
5.97,59.0
5.98,66.0
5.99,77.0
6.0,60.0
6.01,61.0
6.02,77.0
6.03,62.0
6.04,68.0
6.05,60.0
6.06,76.0
6.07,67.0
6.08,61.0
6.09,74.0
6.1,73.0
6.11,57.0
6.12,68.0
6.13,71.0
6.14,64.0
6.15,70.0
6.16,75.0
6.17,66.0
6.18,60.0
6.19,71.0
6.2,50.0
6.21,53.0
6.22,65.0
6.23,59.0
6.24,63.0
6.25,70.0
6.26,65.0
6.27,63.0
6.28,66.0
6.29,79.0
6.3,53.0
6.31,59.0
6.32,54.0
6.33,63.0
6.34,70.0
6.35,62.0
6.36,67.0
6.37,59.0
6.38,62.0
6.39,58.0
6.4,53.0
6.41,57.0
6.42,67.0
6.43,64.0
6.44,64.0
6.45,57.0
6.46,65.0
6.47,65.0
6.48,66.0
6.49,73.0
6.5,79.0
6.51,61.0
6.52,64.0
6.53,67.0
6.54,67.0
6.55,72.0
6.56,67.0
6.57,52.0
6.58,61.0
6.59,79.0
6.6,64.0
6.61,64.0
6.62,78.0
6.63,63.0
6.64,54.0
6.65,64.0
6.66,66.0
6.67,52.0
6.68,57.0
6.69,56.0
6.7,61.0
6.71,59.0
6.72,58.0
6.73,69.0
6.74,64.0
6.75,69.0
6.76,93.0
6.77,73.0
6.78,72.0
6.79,60.0
6.8,54.0
6.81,65.0
6.82,69.0
6.83,74.0
6.84,81.0
6.85,69.0
6.86,79.0
6.87,64.0
6.88,86.0
6.89,54.0
6.9,60.0
6.91,73.0
6.92,60.0
6.93,59.0
6.94,65.0
6.95,66.0
6.96,51.0
6.97,71.0
6.98,70.0
6.99,56.0
7.0,60.0
7.01,74.0
7.02,66.0
7.03,73.0
7.04,66.0
7.05,71.0
7.06,59.0
7.07,73.0
7.08,59.0
7.09,62.0
7.1,67.0
7.11,74.0
7.12,60.0
7.13,72.0
7.14,78.0
7.15,67.0
7.16,62.0
7.17,49.0
7.18,54.0
7.19,61.0
7.2,73.0
7.21,59.0
7.22,62.0
7.23,72.0
7.24,67.0
7.25,73.0
7.26,72.0
7.27,56.0
7.28,66.0
7.29,65.0
7.3,77.0
7.31,59.0
7.32,72.0
7.33,73.0
7.34,76.0
7.35,61.0
7.36,71.0
7.37,68.0
7.38,63.0
7.39,48.0
7.4,72.0
7.41,63.0
7.42,63.0
7.43,80.0
7.44,55.0
7.45,56.0
7.46,66.0
7.47,46.0
7.48,68.0
7.49,53.0
7.5,62.0
7.51,60.0
7.52,62.0
7.53,77.0
7.54,49.0
7.55,63.0
7.56,52.0
7.57,49.0
7.58,61.0
7.59,64.0
7.6,37.0
7.61,52.0
7.62,49.0
7.63,63.0
7.64,58.0
7.65,65.0
7.66,48.0
7.67,66.0
7.68,66.0
7.69,78.0
7.7,73.0
7.71,51.0
7.72,65.0
7.73,66.0
7.74,55.0
7.75,63.0
7.76,63.0
7.77,51.0
7.78,66.0
7.79,47.0
7.8,49.0
7.81,57.0
7.82,64.0
7.83,59.0
7.84,69.0
7.85,66.0
7.86,56.0
7.87,53.0
7.88,54.0
7.89,70.0
7.9,66.0
7.91,46.0
7.92,54.0
7.93,69.0
7.94,58.0
7.95,64.0
7.96,50.0
7.97,48.0
7.98,67.0
7.99,70.0
8.0,57.0
8.01,72.0
8.02,57.0
8.03,63.0
8.04,59.0
8.05,69.0
8.06,61.0
8.07,66.0
8.08,65.0
8.09,59.0
8.1,70.0
8.11,59.0
8.12,50.0
8.13,51.0
8.14,76.0
8.15,54.0
8.16,44.0
8.17,59.0
8.18,65.0
8.19,52.0
8.2,68.0
8.21,59.0
8.22,64.0
8.23,57.0
8.24,45.0
8.25,61.0
8.26,50.0
8.27,54.0
8.28,56.0
8.29,52.0
8.3,68.0
8.31,70.0
8.32,62.0
8.33,47.0
8.34,57.0
8.35,62.0
8.36,67.0
8.37,65.0
8.38,49.0
8.39,68.0
8.4,63.0
8.41,63.0
8.42,64.0
8.43,67.0
8.44,54.0
8.45,43.0
8.46,59.0
8.47,63.0
8.48,61.0
8.49,66.0
8.5,63.0
8.51,54.0
8.52,56.0
8.53,52.0
8.54,57.0
8.55,69.0
8.56,50.0
8.57,50.0
8.58,61.0
8.59,72.0
8.6,70.0
8.61,75.0
8.62,53.0
8.63,65.0
8.64,60.0
8.65,57.0
8.66,53.0
8.67,66.0
8.68,58.0
8.69,67.0
8.7,49.0
8.71,55.0
8.72,59.0
8.73,58.0
8.74,56.0
8.75,59.0
8.76,62.0
8.77,58.0
8.78,62.0
8.79,76.0
8.8,74.0
8.81,56.0
8.82,67.0
8.83,61.0
8.84,60.0
8.85,55.0
8.86,56.0
8.87,69.0
8.88,59.0
8.89,71.0
8.9,66.0
8.91,56.0
8.92,59.0
8.93,65.0
8.94,71.0
8.95,65.0
8.96,62.0
8.97,63.0
8.98,86.0
8.99,59.0
9.0,72.0
9.01,64.0
9.02,62.0
9.03,67.0
9.04,62.0
9.05,66.0
9.06,54.0
9.07,74.0
9.08,53.0
9.09,65.0
9.1,59.0
9.11,63.0
9.12,57.0
9.13,61.0
9.14,43.0
9.15,45.0
9.16,64.0
9.17,59.0
9.18,53.0
9.19,76.0
9.2,56.0
9.21,46.0
9.22,65.0
9.23,55.0
9.24,58.0
9.25,61.0
9.26,59.0
9.27,65.0
9.28,72.0
9.29,53.0
9.3,55.0
9.31,55.0
9.32,55.0
9.33,54.0
9.34,47.0
9.35,55.0
9.36,62.0
9.37,56.0
9.38,58.0
9.39,67.0
9.4,58.0
9.41,61.0
9.42,62.0
9.43,73.0
9.44,51.0
9.45,55.0
9.46,65.0
9.47,59.0
9.48,51.0
9.49,69.0
9.5,61.0
9.51,40.0
9.52,60.0
9.53,60.0
9.54,68.0
9.55,71.0
9.56,60.0
9.57,69.0
9.58,59.0
9.59,62.0
9.6,69.0
9.61,71.0
9.62,72.0
9.63,68.0
9.64,64.0
9.65,75.0
9.66,75.0
9.67,83.0
9.68,74.0
9.69,80.0
9.7,65.0
9.71,63.0
9.72,74.0
9.73,76.0
9.74,65.0
9.75,75.0
9.76,82.0
9.77,72.0
9.78,76.0
9.79,94.0
9.8,94.0
9.81,106.0
9.82,102.0
9.83,97.0
9.84,131.0
9.85,134.0
9.86,154.0
9.87,166.0
9.88,174.0
9.89,210.0
9.9,222.0
9.91,282.0
9.92,323.0
9.93,401.0
9.94,478.0
9.95,616.0
9.96,671.0
9.97,679.0
9.98,614.0
9.99,523.0
10.0,428.0
10.01,292.0
10.02,195.0
10.03,176.0
10.04,122.0
10.05,131.0
10.06,105.0
10.07,99.0
10.08,98.0
10.09,111.0
10.1,74.0
10.11,79.0
10.12,79.0
10.13,73.0
10.14,70.0
10.15,79.0
10.16,88.0
10.17,64.0
10.18,78.0
10.19,69.0
10.2,76.0
10.21,72.0
10.22,75.0
10.23,74.0
10.24,71.0
10.25,75.0
10.26,80.0
10.27,55.0
10.28,67.0
10.29,69.0
10.3,57.0
10.31,72.0
10.32,68.0
10.33,58.0
10.34,61.0
10.35,63.0
10.36,67.0
10.37,64.0
10.38,65.0
10.39,66.0
10.4,67.0
10.41,63.0
10.42,65.0
10.43,64.0
10.44,50.0
10.45,60.0
10.46,62.0
10.47,64.0
10.48,77.0
10.49,58.0
10.5,54.0
10.51,69.0
10.52,73.0
10.53,65.0
10.54,64.0
10.55,63.0
10.56,67.0
10.57,63.0
10.58,51.0
10.59,59.0
10.6,62.0
10.61,65.0
10.62,73.0
10.63,63.0
10.64,65.0
10.65,60.0
10.66,42.0
10.67,49.0
10.68,75.0
10.69,58.0
10.7,69.0
10.71,58.0
10.72,58.0
10.73,55.0
10.74,60.0
10.75,54.0
10.76,65.0
10.77,76.0
10.78,52.0
10.79,50.0
10.8,39.0
10.81,55.0
10.82,61.0
10.83,71.0
10.84,58.0
10.85,65.0
10.86,63.0
10.87,63.0
10.88,69.0
10.89,69.0
10.9,62.0
10.91,66.0
10.92,58.0
10.93,59.0
10.94,58.0
10.95,55.0
10.96,70.0
10.97,63.0
10.98,55.0
10.99,51.0
11.0,56.0
11.01,64.0
11.02,53.0
11.03,48.0
11.04,52.0
11.05,54.0
11.06,60.0
11.07,49.0
11.08,57.0
11.09,63.0
11.1,65.0
11.11,56.0
11.12,70.0
11.13,64.0
11.14,71.0
11.15,56.0
11.16,52.0
11.17,60.0
11.18,57.0
11.19,71.0
11.2,52.0
11.21,68.0
11.22,49.0
11.23,64.0
11.24,51.0
11.25,54.0
11.26,63.0
11.27,69.0
11.28,58.0
11.29,46.0
11.3,51.0
11.31,56.0
11.32,53.0
11.33,58.0
11.34,63.0
11.35,66.0
11.36,60.0
11.37,52.0
11.38,56.0
11.39,69.0
11.4,60.0
11.41,69.0
11.42,59.0
11.43,58.0
11.44,54.0
11.45,53.0
11.46,73.0
11.47,67.0
11.48,73.0
11.49,67.0
11.5,57.0
11.51,56.0
11.52,53.0
11.53,70.0
11.54,51.0
11.55,59.0
11.56,53.0
11.57,52.0
11.58,51.0
11.59,60.0
11.6,58.0
11.61,71.0
11.62,60.0
11.63,70.0
11.64,55.0
11.65,75.0
11.66,47.0
11.67,57.0
11.68,53.0
11.69,66.0
11.7,69.0
11.71,62.0
11.72,58.0
11.73,58.0
11.74,62.0
11.75,61.0
11.76,55.0
11.77,52.0
11.78,59.0
11.79,70.0
11.8,59.0
11.81,71.0
11.82,53.0
11.83,64.0
11.84,58.0
11.85,54.0
11.86,62.0
11.87,62.0
11.88,45.0
11.89,62.0
11.9,62.0
11.91,73.0
11.92,63.0
11.93,61.0
11.94,63.0
11.95,64.0
11.96,55.0
11.97,58.0
11.98,60.0
11.99,67.0
12.0,71.0
12.01,67.0
12.02,62.0
12.03,67.0
12.04,56.0
12.05,56.0
12.06,50.0
12.07,70.0
12.08,63.0
12.09,58.0
12.1,52.0
12.11,51.0
12.12,56.0
12.13,54.0
12.14,44.0
12.15,58.0
12.16,39.0
12.17,60.0
12.18,56.0
12.19,55.0
12.2,71.0
12.21,48.0
12.22,70.0
12.23,64.0
12.24,39.0
12.25,67.0
12.26,58.0
12.27,49.0
12.28,64.0
12.29,58.0
12.3,60.0
12.31,57.0
12.32,56.0
12.33,56.0
12.34,54.0
12.35,70.0
12.36,52.0
12.37,62.0
12.38,71.0
12.39,47.0
12.4,57.0
12.41,63.0
12.42,52.0
12.43,59.0
12.44,67.0
12.45,53.0
12.46,59.0
12.47,51.0
12.48,67.0
12.49,71.0
12.5,54.0
12.51,58.0
12.52,60.0
12.53,53.0
12.54,61.0
12.55,62.0
12.56,62.0
12.57,70.0
12.58,51.0
12.59,46.0
12.6,49.0
12.61,52.0
12.62,66.0
12.63,58.0
12.64,54.0
12.65,51.0
12.66,55.0
12.67,52.0
12.68,56.0
12.69,53.0
12.7,49.0
12.71,67.0
12.72,68.0
12.73,67.0
12.74,57.0
12.75,71.0
12.76,64.0
12.77,65.0
12.78,49.0
12.79,72.0
12.8,64.0
12.81,64.0
12.82,57.0
12.83,64.0
12.84,59.0
12.85,53.0
12.86,62.0
12.87,57.0
12.88,60.0
12.89,56.0
12.9,69.0
12.91,66.0
12.92,68.0
12.93,62.0
12.94,57.0
12.95,64.0
12.96,49.0
12.97,64.0
12.98,48.0
12.99,63.0
13.0,67.0
13.01,71.0
13.02,66.0
13.03,72.0
13.04,59.0
13.05,69.0
13.06,67.0
13.07,61.0
13.08,58.0
13.09,49.0
13.1,75.0
13.11,49.0
13.12,64.0
13.13,69.0
13.14,53.0
13.15,61.0
13.16,53.0
13.17,55.0
13.18,56.0
13.19,50.0
13.2,68.0
13.21,61.0
13.22,68.0
13.23,53.0
13.24,71.0
13.25,55.0
13.26,60.0
13.27,57.0
13.28,38.0
13.29,72.0
13.3,65.0
13.31,55.0
13.32,56.0
13.33,64.0
13.34,47.0
13.35,50.0
13.36,60.0
13.37,45.0
13.38,56.0
13.39,40.0
13.4,53.0
13.41,55.0
13.42,57.0
13.43,51.0
13.44,44.0
13.45,58.0
13.46,49.0
13.47,51.0
13.48,71.0
13.49,63.0
13.5,59.0
13.51,60.0
13.52,57.0
13.53,51.0
13.54,56.0
13.55,57.0
13.56,62.0
13.57,61.0
13.58,64.0
13.59,58.0
13.6,63.0
13.61,52.0
13.62,53.0
13.63,69.0
13.64,54.0
13.65,61.0
13.66,59.0
13.67,58.0
13.68,50.0
13.69,46.0
13.7,68.0
13.71,65.0
13.72,67.0
13.73,60.0
13.74,66.0
13.75,65.0
13.76,57.0
13.77,48.0
13.78,64.0
13.79,63.0
13.8,49.0
13.81,48.0
13.82,59.0
13.83,58.0
13.84,67.0
13.85,68.0
13.86,45.0
13.87,65.0
13.88,59.0
13.89,66.0
13.9,50.0
13.91,67.0
13.92,59.0
13.93,61.0
13.94,51.0
13.95,65.0
13.96,70.0
13.97,65.0
13.98,59.0
13.99,63.0
14.0,52.0
14.01,56.0
14.02,69.0
14.03,60.0
14.04,49.0
14.05,65.0
14.06,60.0
14.07,60.0
14.08,69.0
14.09,55.0
14.1,51.0
14.11,43.0
14.12,64.0
14.13,69.0
14.14,69.0
14.15,54.0
14.16,58.0
14.17,58.0
14.18,74.0
14.19,57.0
14.2,57.0
14.21,57.0
14.22,60.0
14.23,70.0
14.24,57.0
14.25,53.0
14.26,58.0
14.27,67.0
14.28,48.0
14.29,64.0
14.3,48.0
14.31,57.0
14.32,57.0
14.33,57.0
14.34,58.0
14.35,57.0
14.36,49.0
14.37,58.0
14.38,57.0
14.39,47.0
14.4,62.0
14.41,58.0
14.42,60.0
14.43,48.0
14.44,53.0
14.45,57.0
14.46,65.0
14.47,51.0
14.48,52.0
14.49,68.0
14.5,52.0
14.51,56.0
14.52,66.0
14.53,58.0
14.54,61.0
14.55,57.0
14.56,54.0
14.57,35.0
14.58,56.0
14.59,52.0
14.6,67.0
14.61,53.0
14.62,54.0
14.63,59.0
14.64,55.0
14.65,64.0
14.66,52.0
14.67,60.0
14.68,56.0
14.69,65.0
14.7,64.0
14.71,70.0
14.72,56.0
14.73,61.0
14.74,66.0
14.75,62.0
14.76,60.0
14.77,66.0
14.78,61.0
14.79,55.0
14.8,55.0
14.81,58.0
14.82,44.0
14.83,60.0
14.84,63.0
14.85,50.0
14.86,53.0
14.87,69.0
14.88,54.0
14.89,57.0
14.9,55.0
14.91,61.0
14.92,69.0
14.93,60.0
14.94,64.0
14.95,66.0
14.96,62.0
14.97,62.0
14.98,60.0
14.99,64.0
15.0,54.0
15.01,59.0
15.02,58.0
15.03,60.0
15.04,68.0
15.05,65.0
15.06,58.0
15.07,61.0
15.08,67.0
15.09,50.0
15.1,58.0
15.11,59.0
15.12,56.0
15.13,58.0
15.14,66.0
15.15,63.0
15.16,58.0
15.17,58.0
15.18,55.0
15.19,59.0
15.2,57.0
15.21,66.0
15.22,76.0
15.23,59.0
15.24,64.0
15.25,69.0
15.26,58.0
15.27,66.0
15.28,64.0
15.29,68.0
15.3,56.0
15.31,65.0
15.32,56.0
15.33,63.0
15.34,55.0
15.35,57.0
15.36,59.0
15.37,63.0
15.38,67.0
15.39,59.0
15.4,54.0
15.41,61.0
15.42,72.0
15.43,63.0
15.44,50.0
15.45,60.0
15.46,60.0
15.47,57.0
15.48,60.0
15.49,52.0
15.5,49.0
15.51,51.0
15.52,68.0
15.53,58.0
15.54,55.0
15.55,61.0
15.56,58.0
15.57,55.0
15.58,73.0
15.59,66.0
15.6,61.0
15.61,44.0
15.62,55.0
15.63,54.0
15.64,59.0
15.65,56.0
15.66,47.0
15.67,51.0
15.68,60.0
15.69,55.0
15.7,65.0
15.71,56.0
15.72,52.0
15.73,52.0
15.74,57.0
15.75,66.0
15.76,50.0
15.77,56.0
15.78,56.0
15.79,54.0
15.8,48.0
15.81,59.0
15.82,64.0
15.83,77.0
15.84,75.0
15.85,54.0
15.86,60.0
15.87,60.0
15.88,65.0
15.89,53.0
15.9,68.0
15.91,60.0
15.92,47.0
15.93,59.0
15.94,53.0
15.95,54.0
15.96,45.0
15.97,59.0
15.98,62.0
15.99,65.0
16.0,58.0
16.01,60.0
16.02,57.0
16.03,65.0
16.04,53.0
16.05,64.0
16.06,60.0
16.07,71.0
16.08,68.0
16.09,54.0
16.1,50.0
16.11,40.0
16.12,63.0
16.13,61.0
16.14,58.0
16.15,59.0
16.16,69.0
16.17,49.0
16.18,66.0
16.19,69.0
16.2,71.0
16.21,59.0
16.22,55.0
16.23,68.0
16.24,71.0
16.25,59.0
16.26,46.0
16.27,63.0
16.28,58.0
16.29,49.0
16.3,52.0
16.31,59.0
16.32,54.0
16.33,49.0
16.34,80.0
16.35,54.0
16.36,57.0
16.37,48.0
16.38,65.0
16.39,71.0
16.4,66.0
16.41,58.0
16.42,61.0
16.43,66.0
16.44,52.0
16.45,62.0
16.46,59.0
16.47,45.0
16.48,65.0
16.49,53.0
16.5,58.0
16.51,68.0
16.52,52.0
16.53,65.0
16.54,67.0
16.55,69.0
16.56,56.0
16.57,61.0
16.58,66.0
16.59,53.0
16.6,74.0
16.61,50.0
16.62,60.0
16.63,60.0
16.64,73.0
16.65,56.0
16.66,67.0
16.67,65.0
16.68,65.0
16.69,60.0
16.7,83.0
16.71,68.0
16.72,83.0
16.73,71.0
16.74,65.0
16.75,84.0
16.76,78.0
16.77,82.0
16.78,110.0
16.79,87.0
16.8,88.0
16.81,94.0
16.82,92.0
16.83,91.0
16.84,95.0
16.85,86.0
16.86,77.0
16.87,78.0
16.88,63.0
16.89,64.0
16.9,54.0
16.91,58.0
16.92,65.0
16.93,72.0
16.94,63.0
16.95,61.0
16.96,46.0
16.97,58.0
16.98,64.0
16.99,65.0
17.0,65.0
17.01,69.0
17.02,63.0
17.03,56.0
17.04,65.0
17.05,62.0
17.06,62.0
17.07,62.0
17.08,54.0
17.09,59.0
17.1,59.0
17.11,49.0
17.12,70.0
17.13,58.0
17.14,52.0
17.15,57.0
17.16,59.0
17.17,43.0
17.18,55.0
17.19,48.0
17.2,56.0
17.21,53.0
17.22,73.0
17.23,65.0
17.24,56.0
17.25,60.0
17.26,68.0
17.27,57.0
17.28,62.0
17.29,71.0
17.3,66.0
17.31,52.0
17.32,69.0
17.33,52.0
17.34,50.0
17.35,43.0
17.36,70.0
17.37,63.0
17.38,61.0
17.39,66.0
17.4,67.0
17.41,66.0
17.42,77.0
17.43,65.0
17.44,66.0
17.45,59.0
17.46,48.0
17.47,57.0
17.48,60.0
17.49,55.0
17.5,80.0
17.51,67.0
17.52,70.0
17.53,53.0
17.54,55.0
17.55,64.0
17.56,60.0
17.57,57.0
17.58,76.0
17.59,71.0
17.6,65.0
17.61,59.0
17.62,63.0
17.63,59.0
17.64,71.0
17.65,62.0
17.66,52.0
17.67,56.0
17.68,61.0
17.69,57.0
17.7,47.0
17.71,97.0
17.72,53.0
17.73,73.0
17.74,58.0
17.75,59.0
17.76,76.0
17.77,66.0
17.78,75.0
17.79,70.0
17.8,60.0
17.81,66.0
17.82,49.0
17.83,73.0
17.84,72.0
17.85,61.0
17.86,61.0
17.87,51.0
17.88,64.0
17.89,68.0
17.9,43.0
17.91,73.0
17.92,71.0
17.93,72.0
17.94,76.0
17.95,67.0
17.96,55.0
17.97,76.0
17.98,65.0
17.99,67.0
18.0,58.0
18.01,64.0
18.02,56.0
18.03,65.0
18.04,71.0
18.05,54.0
18.06,61.0
18.07,73.0
18.08,59.0
18.09,55.0
18.1,63.0
18.11,66.0
18.12,66.0
18.13,50.0
18.14,55.0
18.15,58.0
18.16,68.0
18.17,63.0
18.18,56.0
18.19,75.0
18.2,68.0
18.21,67.0
18.22,58.0
18.23,70.0
18.24,73.0
18.25,68.0
18.26,51.0
18.27,58.0
18.28,63.0
18.29,77.0
18.3,59.0
18.31,58.0
18.32,68.0
18.33,42.0
18.34,54.0
18.35,73.0
18.36,52.0
18.37,63.0
18.38,53.0
18.39,51.0
18.4,65.0
18.41,68.0
18.42,62.0
18.43,60.0
18.44,60.0
18.45,54.0
18.46,55.0
18.47,62.0
18.48,59.0
18.49,68.0
18.5,50.0
18.51,61.0
18.52,73.0
18.53,77.0
18.54,74.0
18.55,60.0
18.56,60.0
18.57,51.0
18.58,45.0
18.59,62.0
18.6,68.0
18.61,73.0
18.62,52.0
18.63,58.0
18.64,61.0
18.65,63.0
18.66,61.0
18.67,51.0
18.68,64.0
18.69,52.0
18.7,51.0
18.71,47.0
18.72,69.0
18.73,58.0
18.74,55.0
18.75,54.0
18.76,62.0
18.77,66.0
18.78,61.0
18.79,60.0
18.8,62.0
18.81,79.0
18.82,74.0
18.83,48.0
18.84,65.0
18.85,67.0
18.86,61.0
18.87,69.0
18.88,54.0
18.89,67.0
18.9,69.0
18.91,53.0
18.92,52.0
18.93,64.0
18.94,58.0
18.95,48.0
18.96,61.0
18.97,59.0
18.98,56.0
18.99,62.0
19.0,58.0
19.01,68.0
19.02,65.0
19.03,64.0
19.04,66.0
19.05,59.0
19.06,64.0
19.07,60.0
19.08,66.0
19.09,62.0
19.1,75.0
19.11,61.0
19.12,74.0
19.13,59.0
19.14,68.0
19.15,70.0
19.16,67.0
19.17,58.0
19.18,62.0
19.19,63.0
19.2,60.0
19.21,63.0
19.22,58.0
19.23,62.0
19.24,57.0
19.25,61.0
19.26,62.0
19.27,72.0
19.28,68.0
19.29,69.0
19.3,73.0
19.31,69.0
19.32,83.0
19.33,74.0
19.34,88.0
19.35,68.0
19.36,67.0
19.37,83.0
19.38,91.0
19.39,99.0
19.4,101.0
19.41,94.0
19.42,138.0
19.43,119.0
19.44,163.0
19.45,190.0
19.46,185.0
19.47,201.0
19.48,199.0
19.49,174.0
19.5,189.0
19.51,181.0
19.52,161.0
19.53,128.0
19.54,124.0
19.55,105.0
19.56,108.0
19.57,92.0
19.58,95.0
19.59,82.0
19.6,97.0
19.61,77.0
19.62,98.0
19.63,101.0
19.64,77.0
19.65,95.0
19.66,83.0
19.67,87.0
19.68,84.0
19.69,82.0
19.7,95.0
19.71,77.0
19.72,95.0
19.73,82.0
19.74,70.0
19.75,87.0
19.76,74.0
19.77,86.0
19.78,80.0
19.79,83.0
19.8,85.0
19.81,85.0
19.82,111.0
19.83,90.0
19.84,113.0
19.85,103.0
19.86,96.0
19.87,117.0
19.88,107.0
19.89,114.0
19.9,111.0
19.91,135.0
19.92,154.0
19.93,197.0
19.94,261.0
19.95,317.0
19.96,371.0
19.97,407.0
19.98,427.0
19.99,440.0
20.0,369.0
20.01,381.0
20.02,391.0
20.03,357.0
20.04,350.0
20.05,310.0
20.06,268.0
20.07,254.0
20.08,233.0
20.09,216.0
20.1,233.0
20.11,209.0
20.12,189.0
20.13,192.0
20.14,160.0
20.15,168.0
20.16,153.0
20.17,133.0
20.18,133.0
20.19,108.0
20.2,92.0
20.21,102.0
20.22,96.0
20.23,86.0
20.24,81.0
20.25,93.0
20.26,88.0
20.27,112.0
20.28,78.0
20.29,90.0
20.3,81.0
20.31,64.0
20.32,65.0
20.33,64.0
20.34,65.0
20.35,88.0
20.36,66.0
20.37,67.0
20.38,69.0
20.39,70.0
20.4,53.0
20.41,52.0
20.42,66.0
20.43,58.0
20.44,64.0
20.45,66.0
20.46,63.0
20.47,66.0
20.48,74.0
20.49,72.0
20.5,64.0
20.51,61.0
20.52,66.0
20.53,76.0
20.54,68.0
20.55,71.0
20.56,61.0
20.57,69.0
20.58,45.0
20.59,67.0
20.6,67.0
20.61,76.0
20.62,63.0
20.63,57.0
20.64,63.0
20.65,72.0
20.66,49.0
20.67,55.0
20.68,60.0
20.69,57.0
20.7,65.0
20.71,61.0
20.72,72.0
20.73,61.0
20.74,58.0
20.75,63.0
20.76,70.0
20.77,58.0
20.78,69.0
20.79,67.0
20.8,69.0
20.81,62.0
20.82,53.0
20.83,60.0
20.84,66.0
20.85,55.0
20.86,73.0
20.87,69.0
20.88,63.0
20.89,52.0
20.9,69.0
20.91,62.0
20.92,39.0
20.93,81.0
20.94,60.0
20.95,61.0
20.96,71.0
20.97,51.0
20.98,70.0
20.99,63.0
21.0,79.0
21.01,62.0
21.02,60.0
21.03,53.0
21.04,59.0
21.05,52.0
21.06,63.0
21.07,58.0
21.08,67.0
21.09,70.0
21.1,53.0
21.11,59.0
21.12,58.0
21.13,58.0
21.14,66.0
21.15,60.0
21.16,64.0
21.17,63.0
21.18,60.0
21.19,55.0
21.2,67.0
21.21,66.0
21.22,52.0
21.23,62.0
21.24,64.0
21.25,56.0
21.26,78.0
21.27,80.0
21.28,60.0
21.29,70.0
21.3,57.0
21.31,66.0
21.32,51.0
21.33,55.0
21.34,53.0
21.35,55.0
21.36,65.0
21.37,63.0
21.38,60.0
21.39,72.0
21.4,68.0
21.41,70.0
21.42,54.0
21.43,65.0
21.44,63.0
21.45,66.0
21.46,49.0
21.47,67.0
21.48,60.0
21.49,62.0
21.5,63.0
21.51,53.0
21.52,70.0
21.53,60.0
21.54,61.0
21.55,77.0
21.56,73.0
21.57,59.0
21.58,70.0
21.59,42.0
21.6,55.0
21.61,76.0
21.62,71.0
21.63,71.0
21.64,56.0
21.65,54.0
21.66,62.0
21.67,65.0
21.68,51.0
21.69,64.0
21.7,67.0
21.71,58.0
21.72,66.0
21.73,61.0
21.74,54.0
21.75,76.0
21.76,70.0
21.77,46.0
21.78,67.0
21.79,65.0
21.8,62.0
21.81,64.0
21.82,67.0
21.83,72.0
21.84,62.0
21.85,63.0
21.86,63.0
21.87,71.0
21.88,67.0
21.89,64.0
21.9,63.0
21.91,54.0
21.92,58.0
21.93,52.0
21.94,69.0
21.95,62.0
21.96,58.0
21.97,57.0
21.98,68.0
21.99,47.0
22.0,60.0
22.01,53.0
22.02,69.0
22.03,57.0
22.04,64.0
22.05,66.0
22.06,57.0
22.07,64.0
22.08,76.0
22.09,55.0
22.1,64.0
22.11,65.0
22.12,72.0
22.13,57.0
22.14,67.0
22.15,59.0
22.16,64.0
22.17,83.0
22.18,54.0
22.19,62.0
22.2,62.0
22.21,58.0
22.22,60.0
22.23,61.0
22.24,60.0
22.25,78.0
22.26,70.0
22.27,54.0
22.28,55.0
22.29,56.0
22.3,52.0
22.31,62.0
22.32,59.0
22.33,63.0
22.34,65.0
22.35,69.0
22.36,55.0
22.37,60.0
22.38,56.0
22.39,55.0
22.4,70.0
22.41,65.0
22.42,78.0
22.43,70.0
22.44,57.0
22.45,57.0
22.46,55.0
22.47,64.0
22.48,46.0
22.49,64.0
22.5,62.0
22.51,56.0
22.52,57.0
22.53,75.0
22.54,68.0
22.55,53.0
22.56,77.0
22.57,53.0
22.58,60.0
22.59,68.0
22.6,71.0
22.61,53.0
22.62,49.0
22.63,69.0
22.64,74.0
22.65,57.0
22.66,55.0
22.67,69.0
22.68,50.0
22.69,50.0
22.7,65.0
22.71,53.0
22.72,68.0
22.73,66.0
22.74,66.0
22.75,65.0
22.76,67.0
22.77,60.0
22.78,68.0
22.79,64.0
22.8,62.0
22.81,45.0
22.82,74.0
22.83,74.0
22.84,56.0
22.85,72.0
22.86,64.0
22.87,61.0
22.88,64.0
22.89,78.0
22.9,59.0
22.91,62.0
22.92,74.0
22.93,66.0
22.94,44.0
22.95,63.0
22.96,62.0
22.97,57.0
22.98,67.0
22.99,54.0
23.0,62.0
23.01,61.0
23.02,68.0
23.03,63.0
23.04,59.0
23.05,63.0
23.06,67.0
23.07,54.0
23.08,55.0
23.09,55.0
23.1,66.0
23.11,73.0
23.12,70.0
23.13,59.0
23.14,63.0
23.15,53.0
23.16,54.0
23.17,49.0
23.18,62.0
23.19,65.0
23.2,61.0
23.21,55.0
23.22,74.0
23.23,51.0
23.24,56.0
23.25,64.0
23.26,51.0
23.27,49.0
23.28,67.0
23.29,72.0
23.3,58.0
23.31,69.0
23.32,59.0
23.33,78.0
23.34,57.0
23.35,64.0
23.36,72.0
23.37,61.0
23.38,45.0
23.39,53.0
23.4,64.0
23.41,54.0
23.42,57.0
23.43,67.0
23.44,45.0
23.45,49.0
23.46,49.0
23.47,66.0
23.48,76.0
23.49,56.0
23.5,65.0
23.51,51.0
23.52,57.0
23.53,77.0
23.54,67.0
23.55,63.0
23.56,54.0
23.57,45.0
23.58,69.0
23.59,71.0
23.6,73.0
23.61,64.0
23.62,58.0
23.63,61.0
23.64,57.0
23.65,61.0
23.66,56.0
23.67,58.0
23.68,49.0
23.69,57.0
23.7,73.0
23.71,74.0
23.72,47.0
23.73,65.0
23.74,79.0
23.75,76.0
23.76,60.0
23.77,56.0
23.78,54.0
23.79,67.0
23.8,75.0
23.81,62.0
23.82,65.0
23.83,53.0
23.84,66.0
23.85,58.0
23.86,50.0
23.87,49.0
23.88,57.0
23.89,60.0
23.9,59.0
23.91,77.0
23.92,60.0
23.93,60.0
23.94,76.0
23.95,65.0
23.96,79.0
23.97,73.0
23.98,56.0
23.99,59.0
24.0,54.0
24.01,66.0
24.02,57.0
24.03,58.0
24.04,66.0
24.05,66.0
24.06,56.0
24.07,54.0
24.08,54.0
24.09,78.0
24.1,68.0
24.11,53.0
24.12,63.0
24.13,75.0
24.14,71.0
24.15,47.0
24.16,66.0
24.17,58.0
24.18,75.0
24.19,49.0
24.2,50.0
24.21,62.0
24.22,66.0
24.23,50.0
24.24,66.0
24.25,69.0
24.26,70.0
24.27,72.0
24.28,66.0
24.29,67.0
24.3,72.0
24.31,83.0
24.32,64.0
24.33,52.0
24.34,75.0
24.35,66.0
24.36,63.0
24.37,68.0
24.38,52.0
24.39,76.0
24.4,84.0
24.41,76.0
24.42,95.0
24.43,89.0
24.44,74.0
24.45,86.0
24.46,79.0
24.47,110.0
24.48,102.0
24.49,91.0
24.5,100.0
24.51,90.0
24.52,83.0
24.53,80.0
24.54,95.0
24.55,88.0
24.56,88.0
24.57,82.0
24.58,68.0
24.59,69.0
24.6,83.0
24.61,68.0
24.62,70.0
24.63,61.0
24.64,67.0
24.65,61.0
24.66,72.0
24.67,69.0
24.68,68.0
24.69,64.0
24.7,68.0
24.71,56.0
24.72,63.0
24.73,58.0
24.74,57.0
24.75,66.0
24.76,73.0
24.77,59.0
24.78,53.0
24.79,46.0
24.8,74.0
24.81,74.0
24.82,73.0
24.83,62.0
24.84,78.0
24.85,53.0
24.86,71.0
24.87,75.0
24.88,65.0
24.89,50.0
24.9,67.0
24.91,50.0
24.92,72.0
24.93,62.0
24.94,65.0
24.95,62.0
24.96,65.0
24.97,64.0
24.98,50.0
24.99,58.0
25.0,68.0
25.01,64.0
25.02,62.0
25.03,51.0
25.04,65.0
25.05,57.0
25.06,69.0
25.07,67.0
25.08,78.0
25.09,66.0
25.1,60.0
25.11,62.0
25.12,49.0
25.13,69.0
25.14,73.0
25.15,53.0
25.16,57.0
25.17,67.0
25.18,57.0
25.19,62.0
25.2,76.0
25.21,67.0
25.22,53.0
25.23,62.0
25.24,57.0
25.25,57.0
25.26,53.0
25.27,59.0
25.28,66.0
25.29,54.0
25.3,46.0
25.31,60.0
25.32,74.0
25.33,53.0
25.34,48.0
25.35,62.0
25.36,70.0
25.37,68.0
25.38,54.0
25.39,76.0
25.4,60.0
25.41,69.0
25.42,82.0
25.43,54.0
25.44,65.0
25.45,71.0
25.46,81.0
25.47,68.0
25.48,56.0
25.49,69.0
25.5,70.0
25.51,52.0
25.52,66.0
25.53,68.0
25.54,54.0
25.55,61.0
25.56,67.0
25.57,69.0
25.58,53.0
25.59,65.0
25.6,55.0
25.61,64.0
25.62,65.0
25.63,66.0
25.64,64.0
25.65,55.0
25.66,60.0
25.67,62.0
25.68,61.0
25.69,69.0
25.7,61.0
25.71,49.0
25.72,64.0
25.73,60.0
25.74,63.0
25.75,73.0
25.76,68.0
25.77,54.0
25.78,56.0
25.79,59.0
25.8,56.0
25.81,58.0
25.82,71.0
25.83,77.0
25.84,56.0
25.85,62.0
25.86,80.0
25.87,55.0
25.88,61.0
25.89,80.0
25.9,74.0
25.91,63.0
25.92,64.0
25.93,61.0
25.94,72.0
25.95,64.0
25.96,62.0
25.97,67.0
25.98,75.0
25.99,66.0
26.0,85.0
26.01,84.0
26.02,71.0
26.03,71.0
26.04,87.0
26.05,79.0
26.06,101.0
26.07,83.0
26.08,92.0
26.09,76.0
26.1,85.0
26.11,81.0
26.12,112.0
26.13,90.0
26.14,88.0
26.15,124.0
26.16,94.0
26.17,100.0
26.18,125.0
26.19,147.0
26.2,151.0
26.21,174.0
26.22,186.0
26.23,227.0
26.24,232.0
26.25,191.0
26.26,201.0
26.27,226.0
26.28,248.0
26.29,257.0
26.3,283.0
26.31,287.0
26.32,295.0
26.33,295.0
26.34,253.0
26.35,241.0
26.36,211.0
26.37,207.0
26.38,174.0
26.39,208.0
26.4,189.0
26.41,179.0
26.42,176.0
26.43,142.0
26.44,118.0
26.45,121.0
26.46,121.0
26.47,99.0
26.48,97.0
26.49,105.0
26.5,103.0
26.51,104.0
26.52,85.0
26.53,95.0
26.54,90.0
26.55,92.0
26.56,90.0
26.57,88.0
26.58,96.0
26.59,97.0
26.6,116.0
26.61,118.0
26.62,112.0
26.63,131.0
26.64,107.0
26.65,93.0
26.66,101.0
26.67,92.0
26.68,85.0
26.69,95.0
26.7,97.0
26.71,99.0
26.72,79.0
26.73,73.0
26.74,81.0
26.75,77.0
26.76,63.0
26.77,67.0
26.78,72.0
26.79,76.0
26.8,76.0
26.81,68.0
26.82,71.0
26.83,67.0
26.84,61.0
26.85,57.0
26.86,70.0
26.87,70.0
26.88,58.0
26.89,83.0
26.9,51.0
26.91,68.0
26.92,66.0
26.93,67.0
26.94,67.0
26.95,64.0
26.96,57.0
26.97,66.0
26.98,65.0
26.99,75.0
27.0,54.0
27.01,67.0
27.02,61.0
27.03,66.0
27.04,57.0
27.05,59.0
27.06,52.0
27.07,67.0
27.08,63.0
27.09,52.0
27.1,62.0
27.11,64.0
27.12,54.0
27.13,64.0
27.14,58.0
27.15,59.0
27.16,63.0
27.17,71.0
27.18,61.0
27.19,69.0
27.2,58.0
27.21,62.0
27.22,57.0
27.23,66.0
27.24,84.0
27.25,54.0
27.26,54.0
27.27,57.0
27.28,61.0
27.29,66.0
27.3,69.0
27.31,59.0
27.32,71.0
27.33,79.0
27.34,62.0
27.35,63.0
27.36,55.0
27.37,76.0
27.38,72.0
27.39,62.0
27.4,76.0
27.41,65.0
27.42,57.0
27.43,50.0
27.44,59.0
27.45,53.0
27.46,65.0
27.47,61.0
27.48,63.0
27.49,76.0
27.5,63.0
27.51,83.0
27.52,53.0
27.53,73.0
27.54,61.0
27.55,50.0
27.56,70.0
27.57,63.0
27.58,76.0
27.59,67.0
27.6,60.0
27.61,61.0
27.62,52.0
27.63,51.0
27.64,68.0
27.65,63.0
27.66,55.0
27.67,60.0
27.68,71.0
27.69,60.0
27.7,63.0
27.71,59.0
27.72,78.0
27.73,49.0
27.74,59.0
27.75,60.0
27.76,55.0
27.77,50.0
27.78,65.0
27.79,77.0
27.8,62.0
27.81,65.0
27.82,64.0
27.83,63.0
27.84,66.0
27.85,75.0
27.86,75.0
27.87,66.0
27.88,54.0
27.89,62.0
27.9,69.0
27.91,61.0
27.92,64.0
27.93,71.0
27.94,67.0
27.95,55.0
27.96,61.0
27.97,57.0
27.98,67.0
27.99,56.0
28.0,70.0
28.01,71.0
28.02,60.0
28.03,64.0
28.04,71.0
28.05,66.0
28.06,64.0
28.07,67.0
28.08,54.0
28.09,66.0
28.1,70.0
28.11,61.0
28.12,51.0
28.13,75.0
28.14,53.0
28.15,61.0
28.16,53.0
28.17,63.0
28.18,65.0
28.19,72.0
28.2,62.0
28.21,61.0
28.22,59.0
28.23,65.0
28.24,70.0
28.25,71.0
28.26,45.0
28.27,63.0
28.28,50.0
28.29,53.0
28.3,67.0
28.31,60.0
28.32,66.0
28.33,74.0
28.34,72.0
28.35,62.0
28.36,62.0
28.37,73.0
28.38,49.0
28.39,51.0
28.4,66.0
28.41,55.0
28.42,65.0
28.43,75.0
28.44,77.0
28.45,63.0
28.46,62.0
28.47,64.0
28.48,57.0
28.49,61.0
28.5,66.0
28.51,60.0
28.52,65.0
28.53,62.0
28.54,77.0
28.55,70.0
28.56,59.0
28.57,70.0
28.58,60.0
28.59,57.0
28.6,74.0
28.61,88.0
28.62,59.0
28.63,58.0
28.64,70.0
28.65,61.0
28.66,66.0
28.67,51.0
28.68,69.0
28.69,69.0
28.7,60.0
28.71,60.0
28.72,63.0
28.73,57.0
28.74,60.0
28.75,62.0
28.76,67.0
28.77,64.0
28.78,49.0
28.79,60.0
28.8,69.0
28.81,73.0
28.82,56.0
28.83,63.0
28.84,55.0
28.85,69.0
28.86,77.0
28.87,54.0
28.88,62.0
28.89,67.0
28.9,71.0
28.91,68.0
28.92,59.0
28.93,50.0
28.94,49.0
28.95,67.0
28.96,75.0
28.97,47.0
28.98,67.0
28.99,72.0
29.0,60.0
29.01,73.0
29.02,64.0
29.03,69.0
29.04,65.0
29.05,64.0
29.06,56.0
29.07,64.0
29.08,63.0
29.09,66.0
29.1,54.0
29.11,65.0
29.12,67.0
29.13,44.0
29.14,75.0
29.15,75.0
29.16,61.0
29.17,73.0
29.18,66.0
29.19,66.0
29.2,63.0
29.21,55.0
29.22,70.0
29.23,54.0
29.24,77.0
29.25,78.0
29.26,69.0
29.27,90.0
29.28,67.0
29.29,52.0
29.3,64.0
29.31,56.0
29.32,62.0
29.33,85.0
29.34,57.0
29.35,58.0
29.36,52.0
29.37,66.0
29.38,75.0
29.39,72.0
29.4,62.0
29.41,60.0
29.42,61.0
29.43,63.0
29.44,65.0
29.45,69.0
29.46,56.0
29.47,66.0
29.48,61.0
29.49,65.0
29.5,78.0
29.51,66.0
29.52,66.0
29.53,71.0
29.54,72.0
29.55,64.0
29.56,59.0
29.57,65.0
29.58,66.0
29.59,76.0
29.6,54.0
29.61,90.0
29.62,56.0
29.63,69.0
29.64,60.0
29.65,74.0
29.66,66.0
29.67,52.0
29.68,63.0
29.69,52.0
29.7,53.0
29.71,67.0
29.72,77.0
29.73,69.0
29.74,72.0
29.75,51.0
29.76,77.0
29.77,71.0
29.78,66.0
29.79,65.0
29.8,75.0
29.81,52.0
29.82,61.0
29.83,63.0
29.84,66.0
29.85,67.0
29.86,53.0
29.87,75.0
29.88,75.0
29.89,66.0
29.9,79.0
29.91,55.0
29.92,73.0
29.93,72.0
29.94,58.0
29.95,64.0
29.96,73.0
29.97,90.0
29.98,57.0
29.99,57.0
30.0,56.0
30.01,67.0
30.02,65.0
30.03,56.0
30.04,67.0
30.05,66.0
30.06,60.0
30.07,70.0
30.08,68.0
30.09,73.0
30.1,64.0
30.11,52.0
30.12,72.0
30.13,44.0
30.14,75.0
30.15,80.0
30.16,63.0
30.17,58.0
30.18,57.0
30.19,66.0
30.2,62.0
30.21,65.0
30.22,65.0
30.23,73.0
30.24,61.0
30.25,62.0
30.26,61.0
30.27,60.0
30.28,53.0
30.29,75.0
30.3,57.0
30.31,62.0
30.32,81.0
30.33,67.0
30.34,55.0
30.35,69.0
30.36,70.0
30.37,61.0
30.38,60.0
30.39,60.0
30.4,54.0
30.41,57.0
30.42,68.0
30.43,67.0
30.44,63.0
30.45,71.0
30.46,63.0
30.47,68.0
30.48,58.0
30.49,56.0
30.5,58.0
30.51,61.0
30.52,65.0
30.53,73.0
30.54,65.0
30.55,77.0
30.56,64.0
30.57,67.0
30.58,81.0
30.59,60.0
30.6,64.0
30.61,79.0
30.62,62.0
30.63,71.0
30.64,70.0
30.65,69.0
30.66,70.0
30.67,81.0
30.68,66.0
30.69,64.0
30.7,71.0
30.71,53.0
30.72,69.0
30.73,60.0
30.74,65.0
30.75,69.0
30.76,67.0
30.77,72.0
30.78,61.0
30.79,53.0
30.8,53.0
30.81,64.0
30.82,73.0
30.83,68.0
30.84,59.0
30.85,84.0
30.86,60.0
30.87,61.0
30.88,71.0
30.89,61.0
30.9,59.0
30.91,55.0
30.92,66.0
30.93,80.0
30.94,65.0
30.95,69.0
30.96,65.0
30.97,75.0
30.98,59.0
30.99,69.0
31.0,82.0
31.01,65.0
31.02,71.0
31.03,69.0
31.04,71.0
31.05,66.0
31.06,55.0
31.07,56.0
31.08,94.0
31.09,75.0
31.1,69.0
31.11,82.0
31.12,66.0
31.13,74.0
31.14,85.0
31.15,79.0
31.16,72.0
31.17,77.0
31.18,51.0
31.19,78.0
31.2,78.0
31.21,64.0
31.22,83.0
31.23,82.0
31.24,86.0
31.25,76.0
31.26,76.0
31.27,71.0
31.28,82.0
31.29,77.0
31.3,86.0
31.31,83.0
31.32,114.0
31.33,103.0
31.34,114.0
31.35,109.0
31.36,108.0
31.37,100.0
31.38,84.0
31.39,115.0
31.4,100.0
31.41,115.0
31.42,121.0
31.43,101.0
31.44,111.0
31.45,132.0
31.46,133.0
31.47,150.0
31.48,187.0
31.49,223.0
31.5,237.0
31.51,287.0
31.52,280.0
31.53,280.0
31.54,253.0
31.55,234.0
31.56,221.0
31.57,213.0
31.58,216.0
31.59,212.0
31.6,244.0
31.61,211.0
31.62,181.0
31.63,177.0
31.64,171.0
31.65,165.0
31.66,169.0
31.67,166.0
31.68,187.0
31.69,188.0
31.7,209.0
31.71,220.0
31.72,251.0
31.73,254.0
31.74,275.0
31.75,249.0
31.76,240.0
31.77,222.0
31.78,213.0
31.79,210.0
31.8,210.0
31.81,198.0
31.82,211.0
31.83,197.0
31.84,156.0
31.85,151.0
31.86,139.0
31.87,125.0
31.88,131.0
31.89,135.0
31.9,129.0
31.91,117.0
31.92,112.0
31.93,99.0
31.94,96.0
31.95,94.0
31.96,97.0
31.97,103.0
31.98,104.0
31.99,83.0
32.0,103.0
32.01,95.0
32.02,89.0
32.03,77.0
32.04,72.0
32.05,81.0
32.06,69.0
32.07,77.0
32.08,73.0
32.09,77.0
32.1,67.0
32.11,86.0
32.12,79.0
32.13,75.0
32.14,83.0
32.15,58.0
32.16,55.0
32.17,67.0
32.18,85.0
32.19,74.0
32.2,82.0
32.21,72.0
32.22,74.0
32.23,71.0
32.24,64.0
32.25,60.0
32.26,55.0
32.27,50.0
32.28,68.0
32.29,62.0
32.3,68.0
32.31,66.0
32.32,65.0
32.33,48.0
32.34,61.0
32.35,83.0
32.36,64.0
32.37,60.0
32.38,70.0
32.39,66.0
32.4,66.0
32.41,68.0
32.42,65.0
32.43,66.0
32.44,72.0
32.45,58.0
32.46,66.0
32.47,67.0
32.48,82.0
32.49,74.0
32.5,67.0
32.51,65.0
32.52,80.0
32.53,75.0
32.54,61.0
32.55,76.0
32.56,68.0
32.57,62.0
32.58,72.0
32.59,62.0
32.6,74.0
32.61,67.0
32.62,73.0
32.63,72.0
32.64,83.0
32.65,61.0
32.66,76.0
32.67,58.0
32.68,61.0
32.69,77.0
32.7,66.0
32.71,70.0
32.72,66.0
32.73,69.0
32.74,58.0
32.75,63.0
32.76,67.0
32.77,76.0
32.78,71.0
32.79,66.0
32.8,61.0
32.81,67.0
32.82,71.0
32.83,52.0
32.84,72.0
32.85,59.0
32.86,48.0
32.87,61.0
32.88,75.0
32.89,61.0
32.9,76.0
32.91,61.0
32.92,67.0
32.93,69.0
32.94,63.0
32.95,67.0
32.96,57.0
32.97,61.0
32.98,78.0
32.99,69.0
33.0,75.0
33.01,66.0
33.02,72.0
33.03,76.0
33.04,47.0
33.05,74.0
33.06,60.0
33.07,63.0
33.08,67.0
33.09,67.0
33.1,57.0
33.11,57.0
33.12,72.0
33.13,73.0
33.14,67.0
33.15,63.0
33.16,70.0
33.17,74.0
33.18,76.0
33.19,62.0
33.2,63.0
33.21,62.0
33.22,84.0
33.23,69.0
33.24,51.0
33.25,74.0
33.26,63.0
33.27,67.0
33.28,67.0
33.29,69.0
33.3,72.0
33.31,65.0
33.32,72.0
33.33,74.0
33.34,62.0
33.35,67.0
33.36,67.0
33.37,65.0
33.38,57.0
33.39,55.0
33.4,58.0
33.41,59.0
33.42,48.0
33.43,70.0
33.44,65.0
33.45,64.0
33.46,68.0
33.47,49.0
33.48,70.0
33.49,61.0
33.5,67.0
33.51,82.0
33.52,78.0
33.53,61.0
33.54,75.0
33.55,60.0
33.56,63.0
33.57,49.0
33.58,55.0
33.59,65.0
33.6,69.0
33.61,61.0
33.62,64.0
33.63,65.0
33.64,72.0
33.65,61.0
33.66,69.0
33.67,63.0
33.68,64.0
33.69,65.0
33.7,60.0
33.71,73.0
33.72,84.0
33.73,75.0
33.74,77.0
33.75,71.0
33.76,66.0
33.77,60.0
33.78,78.0
33.79,74.0
33.8,52.0
33.81,87.0
33.82,85.0
33.83,72.0
33.84,62.0
33.85,69.0
33.86,67.0
33.87,80.0
33.88,78.0
33.89,104.0
33.9,118.0
33.91,108.0
33.92,120.0
33.93,106.0
33.94,110.0
33.95,108.0
33.96,96.0
33.97,110.0
33.98,84.0
33.99,99.0
34.0,90.0
34.01,103.0
34.02,105.0
34.03,89.0
34.04,88.0
34.05,74.0
34.06,75.0
34.07,71.0
34.08,86.0
34.09,85.0
34.1,73.0
34.11,79.0
34.12,76.0
34.13,62.0
34.14,77.0
34.15,83.0
34.16,82.0
34.17,80.0
34.18,81.0
34.19,81.0
34.2,69.0
34.21,76.0
34.22,86.0
34.23,83.0
34.24,76.0
34.25,92.0
34.26,83.0
34.27,109.0
34.28,101.0
34.29,119.0
34.3,106.0
34.31,115.0
34.32,153.0
34.33,160.0
34.34,146.0
34.35,137.0
34.36,129.0
34.37,137.0
34.38,126.0
34.39,119.0
34.4,121.0
34.41,127.0
34.42,140.0
34.43,113.0
34.44,107.0
34.45,118.0
34.46,105.0
34.47,91.0
34.48,108.0
34.49,103.0
34.5,91.0
34.51,94.0
34.52,113.0
34.53,91.0
34.54,98.0
34.55,111.0
34.56,98.0
34.57,86.0
34.58,76.0
34.59,94.0
34.6,92.0
34.61,92.0
34.62,83.0
34.63,96.0
34.64,85.0
34.65,69.0
34.66,75.0
34.67,92.0
34.68,87.0
34.69,81.0
34.7,78.0
34.71,62.0
34.72,87.0
34.73,53.0
34.74,77.0
34.75,70.0
34.76,80.0
34.77,68.0
34.78,85.0
34.79,80.0
34.8,73.0
34.81,101.0
34.82,81.0
34.83,101.0
34.84,74.0
34.85,83.0
34.86,90.0
34.87,86.0
34.88,85.0
34.89,82.0
34.9,89.0
34.91,66.0
34.92,89.0
34.93,79.0
34.94,82.0
34.95,81.0
34.96,81.0
34.97,73.0
34.98,71.0
34.99,75.0
35.0,74.0
35.01,79.0
35.02,68.0
35.03,81.0
35.04,84.0
35.05,73.0
35.06,70.0
35.07,81.0
35.08,66.0
35.09,80.0
35.1,56.0
35.11,72.0
35.12,75.0
35.13,70.0
35.14,86.0
35.15,74.0
35.16,68.0
35.17,80.0
35.18,87.0
35.19,69.0
35.2,79.0
35.21,91.0
35.22,107.0
35.23,99.0
35.24,111.0
35.25,114.0
35.26,125.0
35.27,103.0
35.28,99.0
35.29,97.0
35.3,107.0
35.31,84.0
35.32,112.0
35.33,94.0
35.34,113.0
35.35,103.0
35.36,111.0
35.37,93.0
35.38,83.0
35.39,86.0
35.4,78.0
35.41,86.0
35.42,80.0
35.43,86.0
35.44,83.0
35.45,81.0
35.46,75.0
35.47,121.0
35.48,81.0
35.49,78.0
35.5,81.0
35.51,93.0
35.52,95.0
35.53,97.0
35.54,86.0
35.55,82.0
35.56,89.0
35.57,94.0
35.58,100.0
35.59,76.0
35.6,88.0
35.61,101.0
35.62,94.0
35.63,90.0
35.64,81.0
35.65,70.0
35.66,71.0
35.67,71.0
35.68,81.0
35.69,70.0
35.7,70.0
35.71,64.0
35.72,82.0
35.73,84.0
35.74,76.0
35.75,58.0
35.76,65.0
35.77,63.0
35.78,75.0
35.79,55.0
35.8,56.0
35.81,66.0
35.82,65.0
35.83,62.0
35.84,69.0
35.85,69.0
35.86,62.0
35.87,68.0
35.88,64.0
35.89,61.0
35.9,73.0
35.91,58.0
35.92,67.0
35.93,63.0
35.94,69.0
35.95,59.0
35.96,55.0
35.97,63.0
35.98,64.0
35.99,56.0
36.0,71.0
36.01,89.0
36.02,77.0
36.03,56.0
36.04,65.0
36.05,69.0
36.06,65.0
36.07,77.0
36.08,88.0
36.09,63.0
36.1,74.0
36.11,61.0
36.12,72.0
36.13,62.0
36.14,50.0
36.15,66.0
36.16,63.0
36.17,70.0
36.18,55.0
36.19,54.0
36.2,63.0
36.21,67.0
36.22,59.0
36.23,68.0
36.24,72.0
36.25,73.0
36.26,50.0
36.27,62.0
36.28,61.0
36.29,70.0
36.3,68.0
36.31,63.0
36.32,80.0
36.33,65.0
36.34,56.0
36.35,69.0
36.36,63.0
36.37,73.0
36.38,65.0
36.39,63.0
36.4,79.0
36.41,69.0
36.42,66.0
36.43,74.0
36.44,63.0
36.45,60.0
36.46,68.0
36.47,81.0
36.48,79.0
36.49,71.0
36.5,74.0
36.51,61.0
36.52,68.0
36.53,71.0
36.54,51.0
36.55,68.0
36.56,71.0
36.57,76.0
36.58,79.0
36.59,74.0
36.6,75.0
36.61,79.0
36.62,73.0
36.63,78.0
36.64,72.0
36.65,77.0
36.66,83.0
36.67,89.0
36.68,93.0
36.69,107.0
36.7,82.0
36.71,89.0
36.72,111.0
36.73,94.0
36.74,90.0
36.75,86.0
36.76,96.0
36.77,82.0
36.78,56.0
36.79,79.0
36.8,88.0
36.81,84.0
36.82,68.0
36.83,81.0
36.84,92.0
36.85,65.0
36.86,73.0
36.87,69.0
36.88,52.0
36.89,62.0
36.9,68.0
36.91,83.0
36.92,68.0
36.93,74.0
36.94,72.0
36.95,64.0
36.96,62.0
36.97,61.0
36.98,72.0
36.99,51.0
37.0,59.0
37.01,72.0
37.02,67.0
37.03,61.0
37.04,60.0
37.05,53.0
37.06,51.0
37.07,63.0
37.08,64.0
37.09,68.0
37.1,76.0
37.11,51.0
37.12,70.0
37.13,48.0
37.14,67.0
37.15,50.0
37.16,58.0
37.17,59.0
37.18,77.0
37.19,62.0
37.2,66.0
37.21,60.0
37.22,75.0
37.23,48.0
37.24,61.0
37.25,63.0
37.26,68.0
37.27,68.0
37.28,55.0
37.29,42.0
37.3,67.0
37.31,73.0
37.32,61.0
37.33,53.0
37.34,55.0
37.35,60.0
37.36,68.0
37.37,70.0
37.38,65.0
37.39,67.0
37.4,65.0
37.41,83.0
37.42,57.0
37.43,59.0
37.44,53.0
37.45,48.0
37.46,66.0
37.47,78.0
37.48,70.0
37.49,70.0
37.5,66.0
37.51,66.0
37.52,70.0
37.53,54.0
37.54,60.0
37.55,59.0
37.56,67.0
37.57,66.0
37.58,71.0
37.59,56.0
37.6,88.0
37.61,53.0
37.62,58.0
37.63,71.0
37.64,68.0
37.65,60.0
37.66,68.0
37.67,51.0
37.68,59.0
37.69,59.0
37.7,46.0
37.71,67.0
37.72,72.0
37.73,56.0
37.74,59.0
37.75,67.0
37.76,53.0
37.77,69.0
37.78,52.0
37.79,63.0
37.8,46.0
37.81,56.0
37.82,52.0
37.83,74.0
37.84,71.0
37.85,64.0
37.86,51.0
37.87,65.0
37.88,59.0
37.89,45.0
37.9,60.0
37.91,63.0
37.92,64.0
37.93,59.0
37.94,69.0
37.95,58.0
37.96,49.0
37.97,71.0
37.98,63.0
37.99,64.0
38.0,70.0
38.01,70.0
38.02,50.0
38.03,71.0
38.04,66.0
38.05,63.0
38.06,68.0
38.07,54.0
38.08,57.0
38.09,58.0
38.1,70.0
38.11,49.0
38.12,58.0
38.13,55.0
38.14,69.0
38.15,63.0
38.16,52.0
38.17,51.0
38.18,74.0
38.19,59.0
38.2,75.0
38.21,91.0
38.22,74.0
38.23,70.0
38.24,55.0
38.25,64.0
38.26,61.0
38.27,77.0
38.28,52.0
38.29,70.0
38.3,85.0
38.31,79.0
38.32,71.0
38.33,69.0
38.34,58.0
38.35,57.0
38.36,59.0
38.37,73.0
38.38,50.0
38.39,67.0
38.4,66.0
38.41,75.0
38.42,58.0
38.43,73.0
38.44,61.0
38.45,61.0
38.46,65.0
38.47,57.0
38.48,68.0
38.49,54.0
38.5,47.0
38.51,58.0
38.52,68.0
38.53,65.0
38.54,63.0
38.55,50.0
38.56,62.0
38.57,59.0
38.58,53.0
38.59,51.0
38.6,63.0
38.61,63.0
38.62,50.0
38.63,65.0
38.64,65.0
38.65,57.0
38.66,67.0
38.67,65.0
38.68,68.0
38.69,66.0
38.7,70.0
38.71,65.0
38.72,54.0
38.73,71.0
38.74,63.0
38.75,55.0
38.76,69.0
38.77,55.0
38.78,62.0
38.79,67.0
38.8,46.0
38.81,59.0
38.82,75.0
38.83,63.0
38.84,60.0
38.85,73.0
38.86,67.0
38.87,54.0
38.88,58.0
38.89,52.0
38.9,56.0
38.91,60.0
38.92,68.0
38.93,64.0
38.94,57.0
38.95,68.0
38.96,46.0
38.97,68.0
38.98,62.0
38.99,64.0
39.0,66.0
39.01,58.0
39.02,70.0
39.03,72.0
39.04,68.0
39.05,66.0
39.06,64.0
39.07,84.0
39.08,83.0
39.09,75.0
39.1,85.0
39.11,66.0
39.12,65.0
39.13,67.0
39.14,85.0
39.15,74.0
39.16,72.0
39.17,87.0
39.18,101.0
39.19,103.0
39.2,85.0
39.21,76.0
39.22,110.0
39.23,86.0
39.24,71.0
39.25,84.0
39.26,85.0
39.27,79.0
39.28,82.0
39.29,76.0
39.3,54.0
39.31,72.0
39.32,70.0
39.33,82.0
39.34,68.0
39.35,83.0
39.36,80.0
39.37,71.0
39.38,93.0
39.39,79.0
39.4,82.0
39.41,83.0
39.42,87.0
39.43,73.0
39.44,101.0
39.45,79.0
39.46,67.0
39.47,78.0
39.48,95.0
39.49,85.0
39.5,77.0
39.51,91.0
39.52,70.0
39.53,80.0
39.54,75.0
39.55,69.0
39.56,90.0
39.57,93.0
39.58,79.0
39.59,69.0
39.6,87.0
39.61,75.0
39.62,81.0
39.63,91.0
39.64,68.0
39.65,74.0
39.66,68.0
39.67,77.0
39.68,58.0
39.69,99.0
39.7,98.0
39.71,95.0
39.72,71.0
39.73,70.0
39.74,81.0
39.75,81.0
39.76,63.0
39.77,72.0
39.78,85.0
39.79,69.0
39.8,78.0
39.81,70.0
39.82,58.0
39.83,64.0
39.84,63.0
39.85,77.0
39.86,66.0
39.87,66.0
39.88,56.0
39.89,80.0
39.9,58.0
39.91,50.0
39.92,74.0
39.93,77.0
39.94,62.0
39.95,67.0
39.96,55.0
39.97,68.0
39.98,74.0
39.99,67.0
40.0,64.0
40.01,66.0
40.02,60.0
40.03,61.0
40.04,73.0
40.05,56.0
40.06,65.0
40.07,68.0
40.08,52.0
40.09,78.0
40.1,72.0
40.11,63.0
40.12,62.0
40.13,69.0
40.14,65.0
40.15,63.0
40.16,58.0
40.17,91.0
40.18,72.0
40.19,64.0
40.2,61.0
40.21,75.0
40.22,82.0
40.23,84.0
40.24,82.0
40.25,79.0
40.26,71.0
40.27,86.0
40.28,81.0
40.29,69.0
40.3,71.0
40.31,95.0
40.32,88.0
40.33,75.0
40.34,64.0
40.35,87.0
40.36,92.0
40.37,88.0
40.38,91.0
40.39,84.0
40.4,86.0
40.41,79.0
40.42,79.0
40.43,95.0
40.44,80.0
40.45,85.0
40.46,93.0
40.47,101.0
40.48,99.0
40.49,114.0
40.5,112.0
40.51,120.0
40.52,115.0
40.53,107.0
40.54,130.0
40.55,131.0
40.56,142.0
40.57,116.0
40.58,106.0
40.59,128.0
40.6,120.0
40.61,113.0
40.62,102.0
40.63,116.0
40.64,107.0
40.65,130.0
40.66,125.0
40.67,125.0
40.68,93.0
40.69,95.0
40.7,92.0
40.71,86.0
40.72,88.0
40.73,84.0
40.74,83.0
40.75,67.0
40.76,84.0
40.77,81.0
40.78,84.0
40.79,79.0
40.8,86.0
40.81,77.0
40.82,82.0
40.83,60.0
40.84,60.0
40.85,77.0
40.86,83.0
40.87,80.0
40.88,78.0
40.89,61.0
40.9,60.0
40.91,77.0
40.92,69.0
40.93,70.0
40.94,73.0
40.95,52.0
40.96,66.0
40.97,63.0
40.98,53.0
40.99,72.0
41.0,75.0
41.01,65.0
41.02,70.0
41.03,65.0
41.04,71.0
41.05,53.0
41.06,68.0
41.07,61.0
41.08,57.0
41.09,62.0
41.1,56.0
41.11,62.0
41.12,64.0
41.13,59.0
41.14,68.0
41.15,66.0
41.16,67.0
41.17,67.0
41.18,58.0
41.19,48.0
41.2,64.0
41.21,63.0
41.22,55.0
41.23,72.0
41.24,67.0
41.25,76.0
41.26,72.0
41.27,68.0
41.28,65.0
41.29,63.0
41.3,65.0
41.31,68.0
41.32,63.0
41.33,66.0
41.34,54.0
41.35,58.0
41.36,62.0
41.37,63.0
41.38,65.0
41.39,61.0
41.4,65.0
41.41,53.0
41.42,61.0
41.43,68.0
41.44,59.0
41.45,62.0
41.46,63.0
41.47,53.0
41.48,64.0
41.49,69.0
41.5,62.0
41.51,45.0
41.52,73.0
41.53,67.0
41.54,73.0
41.55,63.0
41.56,62.0
41.57,69.0
41.58,63.0
41.59,48.0
41.6,70.0
41.61,69.0
41.62,69.0
41.63,48.0
41.64,63.0
41.65,59.0
41.66,67.0
41.67,68.0
41.68,71.0
41.69,59.0
41.7,42.0
41.71,73.0
41.72,60.0
41.73,72.0
41.74,55.0
41.75,81.0
41.76,78.0
41.77,53.0
41.78,56.0
41.79,57.0
41.8,65.0
41.81,69.0
41.82,59.0
41.83,61.0
41.84,69.0
41.85,56.0
41.86,71.0
41.87,53.0
41.88,61.0
41.89,62.0
41.9,67.0
41.91,75.0
41.92,53.0
41.93,63.0
41.94,70.0
41.95,63.0
41.96,72.0
41.97,61.0
41.98,72.0
41.99,60.0
42.0,58.0
42.01,61.0
42.02,64.0
42.03,50.0
42.04,63.0
42.05,61.0
42.06,68.0
42.07,66.0
42.08,60.0
42.09,49.0
42.1,51.0
42.11,64.0
42.12,71.0
42.13,54.0
42.14,71.0
42.15,61.0
42.16,67.0
42.17,63.0
42.18,67.0
42.19,62.0
42.2,65.0
42.21,51.0
42.22,46.0
42.23,54.0
42.24,57.0
42.25,67.0
42.26,69.0
42.27,62.0
42.28,57.0
42.29,77.0
42.3,59.0
42.31,61.0
42.32,58.0
42.33,45.0
42.34,54.0
42.35,65.0
42.36,75.0
42.37,63.0
42.38,79.0
42.39,52.0
42.4,60.0
42.41,60.0
42.42,65.0
42.43,61.0
42.44,78.0
42.45,69.0
42.46,73.0
42.47,47.0
42.48,54.0
42.49,58.0
42.5,68.0
42.51,83.0
42.52,59.0
42.53,63.0
42.54,64.0
42.55,82.0
42.56,79.0
42.57,77.0
42.58,53.0
42.59,77.0
42.6,62.0
42.61,57.0
42.62,66.0
42.63,60.0
42.64,61.0
42.65,54.0
42.66,68.0
42.67,64.0
42.68,63.0
42.69,70.0
42.7,48.0
42.71,52.0
42.72,49.0
42.73,66.0
42.74,52.0
42.75,57.0
42.76,60.0
42.77,69.0
42.78,65.0
42.79,57.0
42.8,84.0
42.81,54.0
42.82,48.0
42.83,56.0
42.84,65.0
42.85,60.0
42.86,54.0
42.87,62.0
42.88,64.0
42.89,61.0
42.9,62.0
42.91,67.0
42.92,53.0
42.93,85.0
42.94,66.0
42.95,63.0
42.96,60.0
42.97,75.0
42.98,61.0
42.99,58.0
43.0,55.0
43.01,54.0
43.02,61.0
43.03,65.0
43.04,59.0
43.05,59.0
43.06,60.0
43.07,51.0
43.08,62.0
43.09,62.0
43.1,46.0
43.11,67.0
43.12,57.0
43.13,74.0
43.14,67.0
43.15,59.0
43.16,66.0
43.17,52.0
43.18,51.0
43.19,48.0
43.2,67.0
43.21,61.0
43.22,78.0
43.23,62.0
43.24,53.0
43.25,67.0
43.26,56.0
43.27,56.0
43.28,72.0
43.29,42.0
43.3,67.0
43.31,80.0
43.32,55.0
43.33,62.0
43.34,58.0
43.35,59.0
43.36,63.0
43.37,68.0
43.38,68.0
43.39,62.0
43.4,64.0
43.41,61.0
43.42,62.0
43.43,74.0
43.44,72.0
43.45,65.0
43.46,76.0
43.47,71.0
43.48,62.0
43.49,72.0
43.5,66.0
43.51,73.0
43.52,67.0
43.53,63.0
43.54,53.0
43.55,60.0
43.56,65.0
43.57,68.0
43.58,60.0
43.59,61.0
43.6,71.0
43.61,64.0
43.62,67.0
43.63,60.0
43.64,55.0
43.65,70.0
43.66,53.0
43.67,72.0
43.68,60.0
43.69,67.0
43.7,77.0
43.71,53.0
43.72,56.0
43.73,78.0
43.74,82.0
43.75,61.0
43.76,61.0
43.77,50.0
43.78,67.0
43.79,69.0
43.8,66.0
43.81,63.0
43.82,79.0
43.83,65.0
43.84,62.0
43.85,64.0
43.86,75.0
43.87,59.0
43.88,77.0
43.89,64.0
43.9,65.0
43.91,75.0
43.92,64.0
43.93,78.0
43.94,63.0
43.95,60.0
43.96,74.0
43.97,89.0
43.98,85.0
43.99,91.0
44.0,88.0
44.01,77.0
44.02,95.0
44.03,62.0
44.04,72.0
44.05,68.0
44.06,75.0
44.07,85.0
44.08,87.0
44.09,83.0
44.1,88.0
44.11,72.0
44.12,72.0
44.13,90.0
44.14,84.0
44.15,92.0
44.16,84.0
44.17,83.0
44.18,72.0
44.19,77.0
44.2,79.0
44.21,72.0
44.22,66.0
44.23,76.0
44.24,65.0
44.25,71.0
44.26,91.0
44.27,92.0
44.28,81.0
44.29,67.0
44.3,77.0
44.31,73.0
44.32,84.0
44.33,68.0
44.34,63.0
44.35,73.0
44.36,68.0
44.37,76.0
44.38,68.0
44.39,56.0
44.4,69.0
44.41,81.0
44.42,59.0
44.43,88.0
44.44,79.0
44.45,83.0
44.46,68.0
44.47,97.0
44.48,70.0
44.49,67.0
44.5,82.0
44.51,75.0
44.52,81.0
44.53,87.0
44.54,82.0
44.55,72.0
44.56,82.0
44.57,69.0
44.58,86.0
44.59,68.0
44.6,68.0
44.61,100.0
44.62,79.0
44.63,61.0
44.64,69.0
44.65,68.0
44.66,77.0
44.67,72.0
44.68,73.0
44.69,73.0
44.7,58.0
44.71,74.0
44.72,46.0
44.73,73.0
44.74,71.0
44.75,66.0
44.76,86.0
44.77,69.0
44.78,73.0
44.79,64.0
44.8,63.0
44.81,59.0
44.82,61.0
44.83,69.0
44.84,61.0
44.85,54.0
44.86,71.0
44.87,66.0
44.88,77.0
44.89,66.0
44.9,57.0
44.91,59.0
44.92,78.0
44.93,58.0
44.94,57.0
44.95,44.0
44.96,73.0
44.97,64.0
44.98,59.0
44.99,54.0
45.0,70.0
45.01,60.0
45.02,76.0
45.03,74.0
45.04,63.0
45.05,63.0
45.06,62.0
45.07,70.0
45.08,59.0
45.09,69.0
45.1,70.0
45.11,73.0
45.12,57.0
45.13,53.0
45.14,63.0
45.15,48.0
45.16,68.0
45.17,65.0
45.18,52.0
45.19,69.0
45.2,73.0
45.21,40.0
45.22,65.0
45.23,49.0
45.24,62.0
45.25,56.0
45.26,62.0
45.27,80.0
45.28,65.0
45.29,61.0
45.3,69.0
45.31,67.0
45.32,49.0
45.33,73.0
45.34,70.0
45.35,76.0
45.36,46.0
45.37,79.0
45.38,68.0
45.39,71.0
45.4,65.0
45.41,50.0
45.42,60.0
45.43,52.0
45.44,68.0
45.45,74.0
45.46,55.0
45.47,67.0
45.48,71.0
45.49,68.0
45.5,59.0
45.51,53.0
45.52,70.0
45.53,70.0
45.54,63.0
45.55,83.0
45.56,53.0
45.57,56.0
45.58,82.0
45.59,68.0
45.6,57.0
45.61,66.0
45.62,59.0
45.63,64.0
45.64,74.0
45.65,68.0
45.66,74.0
45.67,78.0
45.68,79.0
45.69,56.0
45.7,81.0
45.71,93.0
45.72,79.0
45.73,89.0
45.74,100.0
45.75,94.0
45.76,111.0
45.77,88.0
45.78,88.0
45.79,88.0
45.8,89.0
45.81,75.0
45.82,73.0
45.83,77.0
45.84,76.0
45.85,76.0
45.86,80.0
45.87,88.0
45.88,90.0
45.89,91.0
45.9,95.0
45.91,81.0
45.92,78.0
45.93,78.0
45.94,76.0
45.95,83.0
45.96,62.0
45.97,68.0
45.98,58.0
45.99,87.0
46.0,57.0
46.01,58.0
46.02,66.0
46.03,61.0
46.04,57.0
46.05,69.0
46.06,71.0
46.07,54.0
46.08,67.0
46.09,77.0
46.1,65.0
46.11,67.0
46.12,67.0
46.13,70.0
46.14,69.0
46.15,74.0
46.16,76.0
46.17,62.0
46.18,66.0
46.19,73.0
46.2,69.0
46.21,72.0
46.22,85.0
46.23,80.0
46.24,76.0
46.25,63.0
46.26,53.0
46.27,69.0
46.28,70.0
46.29,65.0
46.3,67.0
46.31,65.0
46.32,58.0
46.33,76.0
46.34,77.0
46.35,70.0
46.36,52.0
46.37,62.0
46.38,67.0
46.39,65.0
46.4,62.0
46.41,63.0
46.42,78.0
46.43,60.0
46.44,61.0
46.45,70.0
46.46,52.0
46.47,63.0
46.48,73.0
46.49,68.0
46.5,59.0
46.51,66.0
46.52,62.0
46.53,64.0
46.54,61.0
46.55,68.0
46.56,71.0
46.57,63.0
46.58,66.0
46.59,66.0
46.6,58.0
46.61,56.0
46.62,71.0
46.63,65.0
46.64,79.0
46.65,65.0
46.66,75.0
46.67,76.0
46.68,62.0
46.69,69.0
46.7,76.0
46.71,65.0
46.72,67.0
46.73,66.0
46.74,85.0
46.75,70.0
46.76,67.0
46.77,72.0
46.78,74.0
46.79,85.0
46.8,65.0
46.81,75.0
46.82,70.0
46.83,74.0
46.84,71.0
46.85,74.0
46.86,76.0
46.87,81.0
46.88,85.0
46.89,66.0
46.9,70.0
46.91,76.0
46.92,67.0
46.93,70.0
46.94,71.0
46.95,65.0
46.96,93.0
46.97,84.0
46.98,86.0
46.99,64.0
47.0,76.0
47.01,98.0
47.02,90.0
47.03,87.0
47.04,89.0
47.05,100.0
47.06,90.0
47.07,82.0
47.08,79.0
47.09,77.0
47.1,87.0
47.11,78.0
47.12,79.0
47.13,74.0
47.14,86.0
47.15,78.0
47.16,95.0
47.17,88.0
47.18,84.0
47.19,71.0
47.2,78.0
47.21,71.0
47.22,63.0
47.23,73.0
47.24,60.0
47.25,75.0
47.26,79.0
47.27,52.0
47.28,95.0
47.29,62.0
47.3,61.0
47.31,55.0
47.32,61.0
47.33,69.0
47.34,74.0
47.35,68.0
47.36,64.0
47.37,64.0
47.38,78.0
47.39,94.0
47.4,68.0
47.41,68.0
47.42,69.0
47.43,84.0
47.44,58.0
47.45,74.0
47.46,62.0
47.47,81.0
47.48,73.0
47.49,87.0
47.5,79.0
47.51,80.0
47.52,68.0
47.53,65.0
47.54,69.0
47.55,66.0
47.56,74.0
47.57,68.0
47.58,62.0
47.59,66.0
47.6,61.0
47.61,72.0
47.62,71.0
47.63,65.0
47.64,63.0
47.65,77.0
47.66,105.0
47.67,94.0
47.68,93.0
47.69,76.0
47.7,65.0
47.71,75.0
47.72,83.0
47.73,77.0
47.74,82.0
47.75,65.0
47.76,84.0
47.77,83.0
47.78,82.0
47.79,82.0
47.8,92.0
47.81,86.0
47.82,73.0
47.83,82.0
47.84,62.0
47.85,83.0
47.86,78.0
47.87,66.0
47.88,81.0
47.89,83.0
47.9,83.0
47.91,73.0
47.92,86.0
47.93,96.0
47.94,132.0
47.95,114.0
47.96,114.0
47.97,121.0
47.98,129.0
47.99,112.0
48.0,98.0
48.01,95.0
48.02,105.0
48.03,85.0
48.04,93.0
48.05,80.0
48.06,96.0
48.07,113.0
48.08,83.0
48.09,88.0
48.1,97.0
48.11,102.0
48.12,96.0
48.13,79.0
48.14,65.0
48.15,77.0
48.16,75.0
48.17,72.0
48.18,70.0
48.19,59.0
48.2,60.0
48.21,61.0
48.22,69.0
48.23,79.0
48.24,75.0
48.25,57.0
48.26,57.0
48.27,77.0
48.28,77.0
48.29,65.0
48.3,57.0
48.31,74.0
48.32,56.0
48.33,72.0
48.34,70.0
48.35,60.0
48.36,68.0
48.37,63.0
48.38,80.0
48.39,75.0
48.4,64.0
48.41,73.0
48.42,58.0
48.43,56.0
48.44,74.0
48.45,54.0
48.46,67.0
48.47,71.0
48.48,79.0
48.49,62.0
48.5,56.0
48.51,48.0
48.52,54.0
48.53,42.0
48.54,81.0
48.55,66.0
48.56,59.0
48.57,58.0
48.58,61.0
48.59,66.0
48.6,52.0
48.61,67.0
48.62,63.0
48.63,66.0
48.64,52.0
48.65,74.0
48.66,56.0
48.67,54.0
48.68,69.0
48.69,64.0
48.7,61.0
48.71,83.0
48.72,66.0
48.73,64.0
48.74,65.0
48.75,63.0
48.76,49.0
48.77,69.0
48.78,64.0
48.79,60.0
48.8,64.0
48.81,70.0
48.82,62.0
48.83,89.0
48.84,67.0
48.85,63.0
48.86,56.0
48.87,58.0
48.88,61.0
48.89,57.0
48.9,57.0
48.91,63.0
48.92,77.0
48.93,59.0
48.94,67.0
48.95,58.0
48.96,56.0
48.97,79.0
48.98,61.0
48.99,50.0
49.0,85.0
49.01,68.0
49.02,62.0
49.03,66.0
49.04,83.0
49.05,63.0
49.06,63.0
49.07,64.0
49.08,46.0
49.09,60.0
49.1,70.0
49.11,60.0
49.12,52.0
49.13,70.0
49.14,60.0
49.15,60.0
49.16,56.0
49.17,59.0
49.18,66.0
49.19,54.0
49.2,77.0
49.21,59.0
49.22,60.0
49.23,74.0
49.24,72.0
49.25,74.0
49.26,66.0
49.27,63.0
49.28,61.0
49.29,58.0
49.3,50.0
49.31,55.0
49.32,55.0
49.33,59.0
49.34,69.0
49.35,68.0
49.36,72.0
49.37,77.0
49.38,53.0
49.39,63.0
49.4,51.0
49.41,76.0
49.42,66.0
49.43,56.0
49.44,81.0
49.45,63.0
49.46,64.0
49.47,62.0
49.48,65.0
49.49,69.0
49.5,57.0
49.51,82.0
49.52,64.0
49.53,69.0
49.54,74.0
49.55,56.0
49.56,80.0
49.57,63.0
49.58,67.0
49.59,73.0
49.6,75.0
49.61,60.0
49.62,69.0
49.63,74.0
49.64,78.0
49.65,91.0
49.66,76.0
49.67,101.0
49.68,81.0
49.69,91.0
49.7,112.0
49.71,97.0
49.72,99.0
49.73,115.0
49.74,105.0
49.75,89.0
49.76,83.0
49.77,79.0
49.78,78.0
49.79,82.0
49.8,66.0
49.81,69.0
49.82,93.0
49.83,86.0
49.84,94.0
49.85,95.0
49.86,91.0
49.87,79.0
49.88,78.0
49.89,83.0
49.9,81.0
49.91,82.0
49.92,60.0
49.93,80.0
49.94,87.0
49.95,92.0
49.96,58.0
49.97,55.0
49.98,73.0
49.99,65.0
50.0,64.0
50.01,70.0
50.02,61.0
50.03,61.0
50.04,71.0
50.05,61.0
50.06,64.0
50.07,54.0
50.08,71.0
50.09,56.0
50.1,87.0
50.11,64.0
50.12,72.0
50.13,63.0
50.14,74.0
50.15,74.0
50.16,79.0
50.17,69.0
50.18,72.0
50.19,85.0
50.2,70.0
50.21,70.0
50.22,78.0
50.23,66.0
50.24,76.0
50.25,71.0
50.26,53.0
50.27,61.0
50.28,89.0
50.29,84.0
50.3,80.0
50.31,66.0
50.32,62.0
50.33,78.0
50.34,70.0
50.35,75.0
50.36,86.0
50.37,73.0
50.38,86.0
50.39,69.0
50.4,72.0
50.41,69.0
50.42,77.0
50.43,67.0
50.44,71.0
50.45,75.0
50.46,67.0
50.47,66.0
50.48,67.0
50.49,80.0
50.5,69.0
50.51,66.0
50.52,54.0
50.53,58.0
50.54,55.0
50.55,76.0
50.56,64.0
50.57,51.0
50.58,59.0
50.59,80.0
50.6,68.0
50.61,59.0
50.62,64.0
50.63,66.0
50.64,60.0
50.65,72.0
50.66,57.0
50.67,44.0
50.68,69.0
50.69,83.0
50.7,66.0
50.71,76.0
50.72,62.0
50.73,59.0
50.74,72.0
50.75,67.0
50.76,72.0
50.77,63.0
50.78,55.0
50.79,63.0
50.8,53.0
50.81,68.0
50.82,54.0
50.83,60.0
50.84,65.0
50.85,68.0
50.86,52.0
50.87,62.0
50.88,67.0
50.89,58.0
50.9,67.0
50.91,60.0
50.92,51.0
50.93,56.0
50.94,57.0
50.95,66.0
50.96,69.0
50.97,67.0
50.98,82.0
50.99,63.0
51.0,77.0
51.01,50.0
51.02,57.0
51.03,67.0
51.04,60.0
51.05,57.0
51.06,59.0
51.07,68.0
51.08,62.0
51.09,64.0
51.1,60.0
51.11,59.0
51.12,66.0
51.13,66.0
51.14,59.0
51.15,55.0
51.16,69.0
51.17,52.0
51.18,60.0
51.19,62.0
51.2,56.0
51.21,51.0
51.22,63.0
51.23,66.0
51.24,66.0
51.25,73.0
51.26,67.0
51.27,64.0
51.28,59.0
51.29,68.0
51.3,71.0
51.31,62.0
51.32,71.0
51.33,81.0
51.34,71.0
51.35,67.0
51.36,72.0
51.37,56.0
51.38,62.0
51.39,64.0
51.4,69.0
51.41,72.0
51.42,79.0
51.43,73.0
51.44,71.0
51.45,76.0
51.46,57.0
51.47,87.0
51.48,78.0
51.49,51.0
51.5,50.0
51.51,57.0
51.52,69.0
51.53,66.0
51.54,65.0
51.55,62.0
51.56,63.0
51.57,54.0
51.58,72.0
51.59,58.0
51.6,65.0
51.61,82.0
51.62,64.0
51.63,70.0
51.64,63.0
51.65,74.0
51.66,54.0
51.67,56.0
51.68,61.0
51.69,53.0
51.7,68.0
51.71,77.0
51.72,70.0
51.73,70.0
51.74,54.0
51.75,53.0
51.76,77.0
51.77,48.0
51.78,65.0
51.79,72.0
51.8,48.0
51.81,53.0
51.82,57.0
51.83,73.0
51.84,62.0
51.85,57.0
51.86,54.0
51.87,65.0
51.88,62.0
51.89,71.0
51.9,62.0
51.91,70.0
51.92,58.0
51.93,61.0
51.94,75.0
51.95,64.0
51.96,66.0
51.97,73.0
51.98,58.0
51.99,64.0
52.0,72.0
52.01,67.0
52.02,65.0
52.03,48.0
52.04,76.0
52.05,67.0
52.06,73.0
52.07,53.0
52.08,64.0
52.09,54.0
52.1,56.0
52.11,47.0
52.12,56.0
52.13,66.0
52.14,50.0
52.15,67.0
52.16,64.0
52.17,58.0
52.18,71.0
52.19,59.0
52.2,62.0
52.21,69.0
52.22,76.0
52.23,61.0
52.24,55.0
52.25,59.0
52.26,69.0
52.27,62.0
52.28,55.0
52.29,56.0
52.3,73.0
52.31,61.0
52.32,61.0
52.33,63.0
52.34,46.0
52.35,64.0
52.36,65.0
52.37,59.0
52.38,55.0
52.39,60.0
52.4,81.0
52.41,57.0
52.42,52.0
52.43,63.0
52.44,59.0
52.45,61.0
52.46,52.0
52.47,65.0
52.48,71.0
52.49,68.0
52.5,67.0
52.51,74.0
52.52,65.0
52.53,52.0
52.54,68.0
52.55,52.0
52.56,64.0
52.57,64.0
52.58,75.0
52.59,53.0
52.6,71.0
52.61,66.0
52.62,72.0
52.63,62.0
52.64,73.0
52.65,59.0
52.66,63.0
52.67,65.0
52.68,59.0
52.69,65.0
52.7,51.0
52.71,71.0
52.72,61.0
52.73,57.0
52.74,50.0
52.75,68.0
52.76,63.0
52.77,73.0
52.78,61.0
52.79,54.0
52.8,61.0
52.81,58.0
52.82,70.0
52.83,52.0
52.84,61.0
52.85,54.0
52.86,69.0
52.87,56.0
52.88,71.0
52.89,61.0
52.9,58.0
52.91,59.0
52.92,50.0
52.93,83.0
52.94,64.0
52.95,66.0
52.96,82.0
52.97,65.0
52.98,69.0
52.99,67.0
53.0,80.0
53.01,60.0
53.02,68.0
53.03,67.0
53.04,66.0
53.05,67.0
53.06,61.0
53.07,61.0
53.08,73.0
53.09,78.0
53.1,63.0
53.11,87.0
53.12,71.0
53.13,68.0
53.14,61.0
53.15,52.0
53.16,77.0
53.17,65.0
53.18,76.0
53.19,69.0
53.2,76.0
53.21,69.0
53.22,84.0
53.23,62.0
53.24,66.0
53.25,77.0
53.26,73.0
53.27,82.0
53.28,73.0
53.29,84.0
53.3,86.0
53.31,67.0
53.32,83.0
53.33,54.0
53.34,63.0
53.35,66.0
53.36,79.0
53.37,57.0
53.38,62.0
53.39,62.0
53.4,70.0
53.41,73.0
53.42,62.0
53.43,68.0
53.44,69.0
53.45,67.0
53.46,67.0
53.47,65.0
53.48,67.0
53.49,59.0
53.5,84.0
53.51,61.0
53.52,51.0
53.53,72.0
53.54,62.0
53.55,62.0
53.56,68.0
53.57,85.0
53.58,79.0
53.59,67.0
53.6,70.0
53.61,83.0
53.62,80.0
53.63,64.0
53.64,79.0
53.65,57.0
53.66,63.0
53.67,68.0
53.68,63.0
53.69,64.0
53.7,70.0
53.71,75.0
53.72,59.0
53.73,73.0
53.74,78.0
53.75,62.0
53.76,79.0
53.77,64.0
53.78,71.0
53.79,54.0
53.8,80.0
53.81,62.0
53.82,62.0
53.83,65.0
53.84,66.0
53.85,63.0
53.86,59.0
53.87,67.0
53.88,70.0
53.89,68.0
53.9,89.0
53.91,77.0
53.92,53.0
53.93,69.0
53.94,83.0
53.95,72.0
53.96,72.0
53.97,77.0
53.98,61.0
53.99,74.0
54.0,70.0
54.01,65.0
54.02,62.0
54.03,63.0
54.04,65.0
54.05,76.0
54.06,60.0
54.07,73.0
54.08,69.0
54.09,74.0
54.1,62.0
54.11,79.0
54.12,70.0
54.13,73.0
54.14,68.0
54.15,83.0
54.16,72.0
54.17,81.0
54.18,75.0
54.19,68.0
54.2,82.0
54.21,65.0
54.22,72.0
54.23,67.0
54.24,78.0
54.25,86.0
54.26,61.0
54.27,52.0
54.28,67.0
54.29,61.0
54.3,68.0
54.31,69.0
54.32,73.0
54.33,59.0
54.34,69.0
54.35,68.0
54.36,59.0
54.37,67.0
54.38,63.0
54.39,66.0
54.4,57.0
54.41,72.0
54.42,75.0
54.43,61.0
54.44,61.0
54.45,61.0
54.46,71.0
54.47,81.0
54.48,65.0
54.49,68.0
54.5,59.0
54.51,69.0
54.52,56.0
54.53,57.0
54.54,65.0
54.55,70.0
54.56,53.0
54.57,78.0
54.58,71.0
54.59,70.0
54.6,85.0
54.61,65.0
54.62,71.0
54.63,49.0
54.64,59.0
54.65,71.0
54.66,75.0
54.67,68.0
54.68,73.0
54.69,69.0
54.7,62.0
54.71,60.0
54.72,70.0
54.73,51.0
54.74,58.0
54.75,75.0
54.76,73.0
54.77,89.0
54.78,49.0
54.79,58.0
54.8,80.0
54.81,66.0
54.82,56.0
54.83,68.0
54.84,80.0
54.85,57.0
54.86,67.0
54.87,59.0
54.88,78.0
54.89,76.0
54.9,59.0
54.91,69.0
54.92,48.0
54.93,65.0
54.94,62.0
54.95,64.0
54.96,53.0
54.97,49.0
54.98,65.0
54.99,80.0
55.0,72.0
55.01,86.0
55.02,71.0
55.03,85.0
55.04,59.0
55.05,77.0
55.06,62.0
55.07,71.0
55.08,65.0
55.09,66.0
55.1,69.0
55.11,69.0
55.12,71.0
55.13,64.0
55.14,65.0
55.15,72.0
55.16,72.0
55.17,77.0
55.18,70.0
55.19,62.0
55.2,46.0
55.21,70.0
55.22,84.0
55.23,59.0
55.24,71.0
55.25,67.0
55.26,72.0
55.27,75.0
55.28,76.0
55.29,57.0
55.3,54.0
55.31,63.0
55.32,57.0
55.33,73.0
55.34,78.0
55.35,72.0
55.36,58.0
55.37,61.0
55.38,52.0
55.39,56.0
55.4,58.0
55.41,67.0
55.42,55.0
55.43,64.0
55.44,57.0
55.45,73.0
55.46,63.0
55.47,57.0
55.48,65.0
55.49,53.0
55.5,69.0
55.51,44.0
55.52,62.0
55.53,81.0
55.54,64.0
55.55,60.0
55.56,56.0
55.57,64.0
55.58,50.0
55.59,69.0
55.6,64.0
55.61,60.0
55.62,54.0
55.63,61.0
55.64,56.0
55.65,59.0
55.66,58.0
55.67,59.0
55.68,69.0
55.69,55.0
55.7,77.0
55.71,64.0
55.72,52.0
55.73,59.0
55.74,65.0
55.75,58.0
55.76,52.0
55.77,70.0
55.78,50.0
55.79,82.0
55.8,69.0
55.81,46.0
55.82,64.0
55.83,50.0
55.84,65.0
55.85,48.0
55.86,68.0
55.87,59.0
55.88,58.0
55.89,53.0
55.9,55.0
55.91,78.0
55.92,69.0
55.93,41.0
55.94,63.0
55.95,86.0
55.96,73.0
55.97,66.0
55.98,75.0
55.99,69.0
56.0,66.0
56.01,75.0
56.02,61.0
56.03,82.0
56.04,62.0
56.05,61.0
56.06,85.0
56.07,73.0
56.08,75.0
56.09,65.0
56.1,77.0
56.11,71.0
56.12,74.0
56.13,78.0
56.14,76.0
56.15,58.0
56.16,77.0
56.17,88.0
56.18,69.0
56.19,82.0
56.2,56.0
56.21,70.0
56.22,73.0
56.23,65.0
56.24,69.0
56.25,63.0
56.26,63.0
56.27,72.0
56.28,73.0
56.29,57.0
56.3,69.0
56.31,65.0
56.32,68.0
56.33,59.0
56.34,69.0
56.35,73.0
56.36,72.0
56.37,62.0
56.38,58.0
56.39,78.0
56.4,54.0
56.41,71.0
56.42,56.0
56.43,78.0
56.44,59.0
56.45,67.0
56.46,61.0
56.47,56.0
56.48,71.0
56.49,77.0
56.5,61.0
56.51,55.0
56.52,61.0
56.53,73.0
56.54,85.0
56.55,83.0
56.56,74.0
56.57,70.0
56.58,63.0
56.59,66.0
56.6,64.0
56.61,78.0
56.62,65.0
56.63,63.0
56.64,49.0
56.65,68.0
56.66,74.0
56.67,80.0
56.68,61.0
56.69,75.0
56.7,61.0
56.71,66.0
56.72,69.0
56.73,82.0
56.74,66.0
56.75,64.0
56.76,76.0
56.77,79.0
56.78,76.0
56.79,61.0
56.8,49.0
56.81,57.0
56.82,70.0
56.83,62.0
56.84,55.0
56.85,73.0
56.86,54.0
56.87,70.0
56.88,72.0
56.89,79.0
56.9,79.0
56.91,72.0
56.92,72.0
56.93,55.0
56.94,69.0
56.95,69.0
56.96,75.0
56.97,37.0
56.98,68.0
56.99,62.0
57.0,70.0
57.01,66.0
57.02,65.0
57.03,77.0
57.04,71.0
57.05,77.0
57.06,65.0
57.07,75.0
57.08,63.0
57.09,70.0
57.1,78.0
57.11,82.0
57.12,87.0
57.13,73.0
57.14,74.0
57.15,63.0
57.16,67.0
57.17,68.0
57.18,69.0
57.19,73.0
57.2,73.0
57.21,77.0
57.22,74.0
57.23,53.0
57.24,60.0
57.25,68.0
57.26,65.0
57.27,72.0
57.28,65.0
57.29,78.0
57.3,65.0
57.31,87.0
57.32,67.0
57.33,66.0
57.34,58.0
57.35,82.0
57.36,71.0
57.37,64.0
57.38,62.0
57.39,76.0
57.4,79.0
57.41,67.0
57.42,60.0
57.43,53.0
57.44,79.0
57.45,67.0
57.46,65.0
57.47,77.0
57.48,84.0
57.49,59.0
57.5,70.0
57.51,68.0
57.52,51.0
57.53,58.0
57.54,71.0
57.55,70.0
57.56,50.0
57.57,63.0
57.58,60.0
57.59,55.0
57.6,72.0
57.61,68.0
57.62,74.0
57.63,61.0
57.64,70.0
57.65,68.0
57.66,76.0
57.67,56.0
57.68,68.0
57.69,63.0
57.7,63.0
57.71,64.0
57.72,66.0
57.73,78.0
57.74,72.0
57.75,77.0
57.76,67.0
57.77,65.0
57.78,72.0
57.79,60.0
57.8,59.0
57.81,69.0
57.82,70.0
57.83,70.0
57.84,71.0
57.85,64.0
57.86,70.0
57.87,73.0
57.88,68.0
57.89,85.0
57.9,67.0
57.91,67.0
57.92,59.0
57.93,78.0
57.94,73.0
57.95,78.0
57.96,68.0
57.97,59.0
57.98,59.0
57.99,61.0
58.0,76.0
58.01,70.0
58.02,67.0
58.03,89.0
58.04,68.0
58.05,43.0
58.06,62.0
58.07,77.0
58.08,75.0
58.09,65.0
58.1,50.0
58.11,66.0
58.12,78.0
58.13,65.0
58.14,56.0
58.15,50.0
58.16,66.0
58.17,68.0
58.18,51.0
58.19,71.0
58.2,64.0
58.21,65.0
58.22,53.0
58.23,79.0
58.24,48.0
58.25,65.0
58.26,63.0
58.27,58.0
58.28,75.0
58.29,70.0
58.3,58.0
58.31,59.0
58.32,57.0
58.33,58.0
58.34,62.0
58.35,67.0
58.36,68.0
58.37,71.0
58.38,65.0
58.39,66.0
58.4,57.0
58.41,52.0
58.42,55.0
58.43,60.0
58.44,73.0
58.45,63.0
58.46,66.0
58.47,64.0
58.48,61.0
58.49,63.0
58.5,68.0
58.51,61.0
58.52,65.0
58.53,76.0
58.54,62.0
58.55,77.0
58.56,56.0
58.57,63.0
58.58,60.0
58.59,49.0
58.6,58.0
58.61,72.0
58.62,55.0
58.63,74.0
58.64,56.0
58.65,67.0
58.66,65.0
58.67,72.0
58.68,66.0
58.69,69.0
58.7,75.0
58.71,71.0
58.72,76.0
58.73,59.0
58.74,60.0
58.75,61.0
58.76,66.0
58.77,71.0
58.78,62.0
58.79,54.0
58.8,75.0
58.81,81.0
58.82,63.0
58.83,80.0
58.84,67.0
58.85,72.0
58.86,57.0
58.87,76.0
58.88,67.0
58.89,72.0
58.9,58.0
58.91,71.0
58.92,75.0
58.93,59.0
58.94,67.0
58.95,68.0
58.96,72.0
58.97,89.0
58.98,69.0
58.99,51.0
59.0,71.0
59.01,57.0
59.02,83.0
59.03,82.0
59.04,63.0
59.05,74.0
59.06,73.0
59.07,59.0
59.08,60.0
59.09,68.0
59.1,65.0
59.11,59.0
59.12,69.0
59.13,75.0
59.14,70.0
59.15,82.0
59.16,78.0
59.17,62.0
59.18,72.0
59.19,80.0
59.2,80.0
59.21,63.0
59.22,57.0
59.23,63.0
59.24,79.0
59.25,82.0
59.26,72.0
59.27,69.0
59.28,69.0
59.29,63.0
59.3,62.0
59.31,57.0
59.32,67.0
59.33,55.0
59.34,51.0
59.35,82.0
59.36,76.0
59.37,73.0
59.38,72.0
59.39,47.0
59.4,60.0
59.41,77.0
59.42,80.0
59.43,80.0
59.44,85.0
59.45,74.0
59.46,80.0
59.47,63.0
59.48,70.0
59.49,78.0
59.5,67.0
59.51,66.0
59.52,69.0
59.53,58.0
59.54,60.0
59.55,70.0
59.56,60.0
59.57,55.0
59.58,53.0
59.59,79.0
59.6,64.0
59.61,72.0
59.62,81.0
59.63,57.0
59.64,62.0
59.65,68.0
59.66,71.0
59.67,62.0
59.68,77.0
59.69,50.0
59.7,67.0
59.71,58.0
59.72,58.0
59.73,59.0
59.74,65.0
59.75,56.0
59.76,83.0
59.77,70.0
59.78,62.0
59.79,59.0
59.8,64.0
59.81,61.0
59.82,65.0
59.83,75.0
59.84,61.0
59.85,62.0
59.86,54.0
59.87,57.0
59.88,59.0
59.89,74.0
59.9,74.0
59.91,67.0
59.92,72.0
59.93,72.0
59.94,82.0
59.95,69.0
59.96,81.0
59.97,73.0
59.98,86.0
59.99,86.0
60.0,86.0
60.01,55.0
60.02,75.0
60.03,68.0
60.04,55.0
60.05,57.0
60.06,59.0
60.07,67.0
60.08,76.0
60.09,69.0
60.1,55.0
60.11,65.0
60.12,67.0
60.13,73.0
60.14,82.0
60.15,82.0
60.16,69.0
60.17,76.0
60.18,70.0
60.19,52.0
60.2,51.0
60.21,60.0
60.22,65.0
60.23,72.0
60.24,66.0
60.25,72.0
60.26,67.0
60.27,68.0
60.28,59.0
60.29,64.0
60.3,60.0
60.31,79.0
60.32,67.0
60.33,57.0
60.34,57.0
60.35,69.0
60.36,62.0
60.37,49.0
60.38,60.0
60.39,58.0
60.4,63.0
60.41,63.0
60.42,73.0
60.43,60.0
60.44,64.0
60.45,59.0
60.46,62.0
60.47,69.0
60.48,57.0
60.49,64.0
60.5,61.0
60.51,63.0
60.52,64.0
60.53,85.0
60.54,77.0
60.55,70.0
60.56,66.0
60.57,71.0
60.58,62.0
60.59,91.0
60.6,57.0
60.61,71.0
60.62,73.0
60.63,82.0
60.64,63.0
60.65,71.0
60.66,73.0
60.67,57.0
60.68,76.0
60.69,69.0
60.7,65.0
60.71,73.0
60.72,70.0
60.73,72.0
60.74,76.0
60.75,68.0
60.76,91.0
60.77,92.0
60.78,63.0
60.79,70.0
60.8,87.0
60.81,84.0
60.82,57.0
60.83,85.0
60.84,84.0
60.85,89.0
60.86,88.0
60.87,83.0
60.88,99.0
60.89,87.0
60.9,100.0
60.91,104.0
60.92,79.0
60.93,80.0
60.94,89.0
60.95,69.0
60.96,74.0
60.97,88.0
60.98,80.0
60.99,80.0
61.0,92.0
61.01,76.0
61.02,79.0
61.03,91.0
61.04,94.0
61.05,99.0
61.06,84.0
61.07,83.0
61.08,98.0
61.09,75.0
61.1,77.0
61.11,69.0
61.12,94.0
61.13,55.0
61.14,81.0
61.15,68.0
61.16,75.0
61.17,76.0
61.18,85.0
61.19,63.0
61.2,66.0
61.21,67.0
61.22,73.0
61.23,85.0
61.24,69.0
61.25,67.0
61.26,78.0
61.27,61.0
61.28,58.0
61.29,59.0
61.3,72.0
61.31,69.0
61.32,73.0
61.33,65.0
61.34,52.0
61.35,75.0
61.36,64.0
61.37,60.0
61.38,64.0
61.39,70.0
61.4,60.0
61.41,85.0
61.42,64.0
61.43,61.0
61.44,76.0
61.45,67.0
61.46,60.0
61.47,71.0
61.48,68.0
61.49,68.0
61.5,52.0
61.51,59.0
61.52,66.0
61.53,72.0
61.54,60.0
61.55,66.0
61.56,64.0
61.57,49.0
61.58,74.0
61.59,55.0
61.6,61.0
61.61,65.0
61.62,64.0
61.63,74.0
61.64,70.0
61.65,75.0
61.66,58.0
61.67,75.0
61.68,70.0
61.69,52.0
61.7,69.0
61.71,75.0
61.72,64.0
61.73,57.0
61.74,66.0
61.75,67.0
61.76,68.0
61.77,66.0
61.78,82.0
61.79,61.0
61.8,47.0
61.81,79.0
61.82,55.0
61.83,76.0
61.84,54.0
61.85,69.0
61.86,62.0
61.87,55.0
61.88,74.0
61.89,66.0
61.9,73.0
61.91,62.0
61.92,61.0
61.93,50.0
61.94,70.0
61.95,59.0
61.96,56.0
61.97,60.0
61.98,61.0
61.99,58.0
62.0,68.0
62.01,56.0
62.02,70.0
62.03,69.0
62.04,58.0
62.05,63.0
62.06,56.0
62.07,72.0
62.08,63.0
62.09,70.0
62.1,69.0
62.11,69.0
62.12,63.0
62.13,65.0
62.14,60.0
62.15,66.0
62.16,67.0
62.17,70.0
62.18,72.0
62.19,76.0
62.2,61.0
62.21,73.0
62.22,53.0
62.23,63.0
62.24,53.0
62.25,54.0
62.26,57.0
62.27,62.0
62.28,56.0
62.29,69.0
62.3,37.0
62.31,56.0
62.32,82.0
62.33,75.0
62.34,65.0
62.35,65.0
62.36,62.0
62.37,58.0
62.38,59.0
62.39,54.0
62.4,67.0
62.41,66.0
62.42,63.0
62.43,76.0
62.44,72.0
62.45,72.0
62.46,57.0
62.47,76.0
62.48,67.0
62.49,63.0
62.5,81.0
62.51,60.0
62.52,69.0
62.53,82.0
62.54,76.0
62.55,92.0
62.56,92.0
62.57,90.0
62.58,85.0
62.59,105.0
62.6,116.0
62.61,122.0
62.62,148.0
62.63,148.0
62.64,128.0
62.65,131.0
62.66,128.0
62.67,110.0
62.68,107.0
62.69,94.0
62.7,83.0
62.71,83.0
62.72,87.0
62.73,88.0
62.74,84.0
62.75,78.0
62.76,89.0
62.77,96.0
62.78,112.0
62.79,100.0
62.8,123.0
62.81,97.0
62.82,129.0
62.83,100.0
62.84,59.0
62.85,74.0
62.86,88.0
62.87,82.0
62.88,69.0
62.89,63.0
62.9,80.0
62.91,55.0
62.92,74.0
62.93,70.0
62.94,58.0
62.95,84.0
62.96,86.0
62.97,70.0
62.98,67.0
62.99,91.0
63.0,61.0
63.01,76.0
63.02,69.0
63.03,56.0
63.04,71.0
63.05,64.0
63.06,72.0
63.07,55.0
63.08,66.0
63.09,53.0
63.1,68.0
63.11,74.0
63.12,68.0
63.13,71.0
63.14,60.0
63.15,61.0
63.16,67.0
63.17,73.0
63.18,61.0
63.19,63.0
63.2,71.0
63.21,58.0
63.22,64.0
63.23,69.0
63.24,70.0
63.25,56.0
63.26,55.0
63.27,83.0
63.28,57.0
63.29,54.0
63.3,65.0
63.31,71.0
63.32,63.0
63.33,58.0
63.34,65.0
63.35,52.0
63.36,65.0
63.37,63.0
63.38,74.0
63.39,72.0
63.4,68.0
63.41,56.0
63.42,60.0
63.43,66.0
63.44,68.0
63.45,62.0
63.46,65.0
63.47,61.0
63.48,53.0
63.49,63.0
63.5,55.0
63.51,61.0
63.52,72.0
63.53,69.0
63.54,62.0
63.55,60.0
63.56,64.0
63.57,47.0
63.58,58.0
63.59,66.0
63.6,63.0
63.61,64.0
63.62,60.0
63.63,72.0
63.64,51.0
63.65,71.0
63.66,54.0
63.67,72.0
63.68,61.0
63.69,74.0
63.7,61.0
63.71,57.0
63.72,58.0
63.73,69.0
63.74,82.0
63.75,77.0
63.76,68.0
63.77,72.0
63.78,80.0
63.79,67.0
63.8,69.0
63.81,78.0
63.82,66.0
63.83,69.0
63.84,67.0
63.85,62.0
63.86,60.0
63.87,64.0
63.88,70.0
63.89,75.0
63.9,57.0
63.91,73.0
63.92,65.0
63.93,53.0
63.94,70.0
63.95,72.0
63.96,68.0
63.97,64.0
63.98,80.0
63.99,55.0
64.0,76.0
64.01,70.0
64.02,93.0
64.03,68.0
64.04,57.0
64.05,71.0
64.06,57.0
64.07,67.0
64.08,61.0
64.09,62.0
64.1,64.0
64.11,72.0
64.12,67.0
64.13,63.0
64.14,55.0
64.15,60.0
64.16,62.0
64.17,71.0
64.18,53.0
64.19,62.0
64.2,70.0
64.21,51.0
64.22,68.0
64.23,60.0
64.24,65.0
64.25,68.0
64.26,68.0
64.27,57.0
64.28,71.0
64.29,65.0
64.3,70.0
64.31,79.0
64.32,70.0
64.33,63.0
64.34,54.0
64.35,65.0
64.36,67.0
64.37,83.0
64.38,59.0
64.39,74.0
64.4,67.0
64.41,71.0
64.42,77.0
64.43,75.0
64.44,62.0
64.45,60.0
64.46,63.0
64.47,70.0
64.48,73.0
64.49,75.0
64.5,69.0
64.51,74.0
64.52,56.0
64.53,75.0
64.54,59.0
64.55,49.0
64.56,64.0
64.57,62.0
64.58,58.0
64.59,64.0
64.6,77.0
64.61,80.0
64.62,71.0
64.63,75.0
64.64,45.0
64.65,81.0
64.66,60.0
64.67,69.0
64.68,65.0
64.69,81.0
64.7,60.0
64.71,66.0
64.72,65.0
64.73,76.0
64.74,76.0
64.75,60.0
64.76,62.0
64.77,75.0
64.78,59.0
64.79,67.0
64.8,56.0
64.81,63.0
64.82,50.0
64.83,61.0
64.84,60.0
64.85,58.0
64.86,56.0
64.87,46.0
64.88,67.0
64.89,65.0
64.9,81.0
64.91,60.0
64.92,61.0
64.93,59.0
64.94,50.0
64.95,59.0
64.96,62.0
64.97,66.0
64.98,63.0
64.99,61.0
65.0,58.0
65.01,62.0
65.02,44.0
65.03,58.0
65.04,44.0
65.05,62.0
65.06,41.0
65.07,48.0
65.08,75.0
65.09,63.0
65.1,58.0
65.11,59.0
65.12,52.0
65.13,59.0
65.14,54.0
65.15,50.0
65.16,55.0
65.17,60.0
65.18,71.0
65.19,60.0
65.2,72.0
65.21,54.0
65.22,67.0
65.23,76.0
65.24,45.0
65.25,52.0
65.26,50.0
65.27,58.0
65.28,69.0
65.29,58.0
65.3,69.0
65.31,62.0
65.32,57.0
65.33,54.0
65.34,53.0
65.35,74.0
65.36,58.0
65.37,68.0
65.38,67.0
65.39,65.0
65.4,72.0
65.41,75.0
65.42,56.0
65.43,73.0
65.44,63.0
65.45,57.0
65.46,60.0
65.47,67.0
65.48,62.0
65.49,59.0
65.5,78.0
65.51,69.0
65.52,73.0
65.53,92.0
65.54,81.0
65.55,77.0
65.56,68.0
65.57,83.0
65.58,64.0
65.59,71.0
65.6,83.0
65.61,61.0
65.62,70.0
65.63,69.0
65.64,80.0
65.65,74.0
65.66,86.0
65.67,81.0
65.68,70.0
65.69,57.0
65.7,78.0
65.71,66.0
65.72,75.0
65.73,84.0
65.74,75.0
65.75,80.0
65.76,64.0
65.77,75.0
65.78,70.0
65.79,72.0
65.8,63.0
65.81,78.0
65.82,81.0
65.83,71.0
65.84,84.0
65.85,73.0
65.86,76.0
65.87,64.0
65.88,63.0
65.89,65.0
65.9,68.0
65.91,59.0
65.92,61.0
65.93,58.0
65.94,65.0
65.95,72.0
65.96,69.0
65.97,57.0
65.98,60.0
65.99,82.0
66.0,69.0
66.01,68.0
66.02,69.0
66.03,78.0
66.04,66.0
66.05,65.0
66.06,73.0
66.07,76.0
66.08,85.0
66.09,59.0
66.1,61.0
66.11,83.0
66.12,66.0
66.13,63.0
66.14,93.0
66.15,64.0
66.16,85.0
66.17,69.0
66.18,70.0
66.19,71.0
66.2,64.0
66.21,71.0
66.22,77.0
66.23,66.0
66.24,69.0
66.25,79.0
66.26,90.0
66.27,65.0
66.28,84.0
66.29,76.0
66.3,63.0
66.31,61.0
66.32,55.0
66.33,66.0
66.34,74.0
66.35,76.0
66.36,70.0
66.37,82.0
66.38,72.0
66.39,82.0
66.4,74.0
66.41,87.0
66.42,74.0
66.43,74.0
66.44,71.0
66.45,64.0
66.46,83.0
66.47,63.0
66.48,68.0
66.49,60.0
66.5,70.0
66.51,70.0
66.52,66.0
66.53,75.0
66.54,61.0
66.55,70.0
66.56,72.0
66.57,63.0
66.58,73.0
66.59,71.0
66.6,86.0
66.61,76.0
66.62,73.0
66.63,67.0
66.64,50.0
66.65,72.0
66.66,55.0
66.67,74.0
66.68,72.0
66.69,69.0
66.7,53.0
66.71,76.0
66.72,60.0
66.73,72.0
66.74,78.0
66.75,56.0
66.76,69.0
66.77,67.0
66.78,50.0
66.79,72.0
66.8,58.0
66.81,70.0
66.82,68.0
66.83,64.0
66.84,68.0
66.85,64.0
66.86,77.0
66.87,55.0
66.88,82.0
66.89,76.0
66.9,46.0
66.91,50.0
66.92,73.0
66.93,55.0
66.94,41.0
66.95,63.0
66.96,69.0
66.97,68.0
66.98,56.0
66.99,72.0
67.0,62.0
67.01,50.0
67.02,68.0
67.03,70.0
67.04,57.0
67.05,69.0
67.06,64.0
67.07,65.0
67.08,82.0
67.09,58.0
67.1,59.0
67.11,64.0
67.12,60.0
67.13,86.0
67.14,65.0
67.15,58.0
67.16,78.0
67.17,58.0
67.18,52.0
67.19,58.0
67.2,65.0
67.21,65.0
67.22,70.0
67.23,67.0
67.24,63.0
67.25,57.0
67.26,59.0
67.27,55.0
67.28,58.0
67.29,60.0
67.3,81.0
67.31,64.0
67.32,64.0
67.33,64.0
67.34,72.0
67.35,66.0
67.36,55.0
67.37,69.0
67.38,61.0
67.39,62.0
67.4,66.0
67.41,61.0
67.42,59.0
67.43,50.0
67.44,62.0
67.45,55.0
67.46,69.0
67.47,71.0
67.48,68.0
67.49,62.0
67.5,48.0
67.51,61.0
67.52,50.0
67.53,51.0
67.54,60.0
67.55,50.0
67.56,65.0
67.57,57.0
67.58,60.0
67.59,63.0
67.6,52.0
67.61,48.0
67.62,60.0
67.63,57.0
67.64,67.0
67.65,70.0
67.66,58.0
67.67,65.0
67.68,56.0
67.69,54.0
67.7,65.0
67.71,65.0
67.72,53.0
67.73,55.0
67.74,79.0
67.75,64.0
67.76,62.0
67.77,53.0
67.78,49.0
67.79,68.0
67.8,69.0
67.81,75.0
67.82,74.0
67.83,66.0
67.84,55.0
67.85,61.0
67.86,59.0
67.87,79.0
67.88,68.0
67.89,63.0
67.9,69.0
67.91,61.0
67.92,59.0
67.93,57.0
67.94,71.0
67.95,76.0
67.96,61.0
67.97,59.0
67.98,71.0
67.99,66.0
68.0,71.0
68.01,81.0
68.02,61.0
68.03,62.0
68.04,67.0
68.05,55.0
68.06,67.0
68.07,54.0
68.08,44.0
68.09,86.0
68.1,73.0
68.11,74.0
68.12,55.0
68.13,67.0
68.14,74.0
68.15,65.0
68.16,80.0
68.17,50.0
68.18,49.0
68.19,74.0
68.2,65.0
68.21,48.0
68.22,77.0
68.23,68.0
68.24,64.0
68.25,61.0
68.26,68.0
68.27,68.0
68.28,49.0
68.29,59.0
68.3,72.0
68.31,69.0
68.32,60.0
68.33,69.0
68.34,58.0
68.35,72.0
68.36,68.0
68.37,68.0
68.38,58.0
68.39,65.0
68.4,61.0
68.41,64.0
68.42,74.0
68.43,56.0
68.44,58.0
68.45,66.0
68.46,81.0
68.47,65.0
68.48,63.0
68.49,72.0
68.5,81.0
68.51,76.0
68.52,68.0
68.53,67.0
68.54,54.0
68.55,59.0
68.56,74.0
68.57,49.0
68.58,64.0
68.59,49.0
68.6,60.0
68.61,70.0
68.62,68.0
68.63,56.0
68.64,64.0
68.65,59.0
68.66,66.0
68.67,61.0
68.68,53.0
68.69,58.0
68.7,56.0
68.71,74.0
68.72,68.0
68.73,65.0
68.74,72.0
68.75,73.0
68.76,65.0
68.77,58.0
68.78,65.0
68.79,63.0
68.8,62.0
68.81,70.0
68.82,59.0
68.83,70.0
68.84,68.0
68.85,51.0
68.86,49.0
68.87,58.0
68.88,64.0
68.89,64.0
68.9,70.0
68.91,49.0
68.92,70.0
68.93,57.0
68.94,45.0
68.95,69.0
68.96,59.0
68.97,69.0
68.98,47.0
68.99,57.0
69.0,71.0
69.01,58.0
69.02,54.0
69.03,62.0
69.04,67.0
69.05,70.0
69.06,68.0
69.07,61.0
69.08,55.0
69.09,48.0
69.1,60.0
69.11,57.0
69.12,72.0
69.13,58.0
69.14,70.0
69.15,65.0
69.16,80.0
69.17,53.0
69.18,66.0
69.19,64.0
69.2,62.0
69.21,77.0
69.22,68.0
69.23,68.0
69.24,48.0
69.25,64.0
69.26,52.0
69.27,50.0
69.28,67.0
69.29,61.0
69.3,63.0
69.31,56.0
69.32,61.0
69.33,63.0
69.34,78.0
69.35,62.0
69.36,57.0
69.37,67.0
69.38,60.0
69.39,60.0
69.4,75.0
69.41,77.0
69.42,61.0
69.43,61.0
69.44,47.0
69.45,64.0
69.46,72.0
69.47,56.0
69.48,56.0
69.49,53.0
69.5,72.0
69.51,67.0
69.52,56.0
69.53,52.0
69.54,60.0
69.55,69.0
69.56,88.0
69.57,61.0
69.58,65.0
69.59,59.0
69.6,60.0
69.61,63.0
69.62,85.0
69.63,56.0
69.64,67.0
69.65,69.0
69.66,64.0
69.67,59.0
69.68,73.0
69.69,48.0
69.7,63.0
69.71,54.0
69.72,67.0
69.73,71.0
69.74,63.0
69.75,59.0
69.76,57.0
69.77,62.0
69.78,63.0
69.79,60.0
69.8,68.0
69.81,60.0
69.82,54.0
69.83,65.0
69.84,77.0
69.85,60.0
69.86,65.0
69.87,60.0
69.88,52.0
69.89,62.0
69.9,70.0
69.91,57.0
69.92,66.0
69.93,65.0
69.94,54.0
69.95,53.0
69.96,65.0
69.97,49.0
69.98,55.0
69.99,56.0
70.0,65.0
70.01,67.0
70.02,57.0
70.03,65.0
70.04,68.0
70.05,59.0
70.06,53.0
70.07,54.0
70.08,52.0
70.09,58.0
70.1,57.0
70.11,65.0
70.12,49.0
70.13,72.0
70.14,53.0
70.15,55.0
70.16,73.0
70.17,55.0
70.18,70.0
70.19,59.0
70.2,52.0
70.21,42.0
70.22,75.0
70.23,68.0
70.24,67.0
70.25,69.0
70.26,67.0
70.27,63.0
70.28,67.0
70.29,63.0
70.3,68.0
70.31,57.0
70.32,48.0
70.33,56.0
70.34,53.0
70.35,72.0
70.36,54.0
70.37,59.0
70.38,59.0
70.39,52.0
70.4,54.0
70.41,56.0
70.42,59.0
70.43,62.0
70.44,58.0
70.45,62.0
70.46,59.0
70.47,67.0
70.48,55.0
70.49,59.0
70.5,41.0
70.51,50.0
70.52,51.0
70.53,61.0
70.54,64.0
70.55,74.0
70.56,53.0
70.57,74.0
70.58,73.0
70.59,49.0
70.6,62.0
70.61,55.0
70.62,61.0
70.63,56.0
70.64,61.0
70.65,63.0
70.66,57.0
70.67,63.0
70.68,60.0
70.69,63.0
70.7,59.0
70.71,72.0
70.72,50.0
70.73,44.0
70.74,55.0
70.75,55.0
70.76,70.0
70.77,62.0
70.78,57.0
70.79,60.0
70.8,63.0
70.81,51.0
70.82,61.0
70.83,61.0
70.84,54.0
70.85,62.0
70.86,53.0
70.87,70.0
70.88,46.0
70.89,46.0
70.9,60.0
70.91,54.0
70.92,67.0
70.93,58.0
70.94,77.0
70.95,53.0
70.96,52.0
70.97,70.0
70.98,68.0
70.99,79.0
71.0,57.0
71.01,67.0
71.02,61.0
71.03,65.0
71.04,69.0
71.05,69.0
71.06,76.0
71.07,53.0
71.08,61.0
71.09,72.0
71.1,72.0
71.11,69.0
71.12,58.0
71.13,59.0
71.14,52.0
71.15,55.0
71.16,54.0
71.17,55.0
71.18,63.0
71.19,62.0
71.2,69.0
71.21,60.0
71.22,61.0
71.23,66.0
71.24,67.0
71.25,70.0
71.26,60.0
71.27,59.0
71.28,52.0
71.29,62.0
71.3,55.0
71.31,75.0
71.32,68.0
71.33,68.0
71.34,68.0
71.35,61.0
71.36,45.0
71.37,72.0
71.38,61.0
71.39,76.0
71.4,45.0
71.41,59.0
71.42,65.0
71.43,61.0
71.44,56.0
71.45,46.0
71.46,63.0
71.47,59.0
71.48,60.0
71.49,61.0
71.5,67.0
71.51,71.0
71.52,87.0
71.53,57.0
71.54,50.0
71.55,53.0
71.56,66.0
71.57,55.0
71.58,55.0
71.59,54.0
71.6,56.0
71.61,66.0
71.62,79.0
71.63,62.0
71.64,67.0
71.65,48.0
71.66,62.0
71.67,66.0
71.68,71.0
71.69,66.0
71.7,60.0
71.71,69.0
71.72,66.0
71.73,50.0
71.74,40.0
71.75,74.0
71.76,71.0
71.77,56.0
71.78,62.0
71.79,58.0
71.8,52.0
71.81,61.0
71.82,61.0
71.83,57.0
71.84,62.0
71.85,72.0
71.86,80.0
71.87,59.0
71.88,52.0
71.89,60.0
71.9,63.0
71.91,59.0
71.92,66.0
71.93,80.0
71.94,63.0
71.95,60.0
71.96,50.0
71.97,60.0
71.98,76.0
71.99,60.0
72.0,60.0
72.01,60.0
72.02,67.0
72.03,64.0
72.04,52.0
72.05,61.0
72.06,55.0
72.07,50.0
72.08,50.0
72.09,75.0
72.1,69.0
72.11,65.0
72.12,65.0
72.13,79.0
72.14,74.0
72.15,76.0
72.16,66.0
72.17,72.0
72.18,73.0
72.19,76.0
72.2,82.0
72.21,59.0
72.22,64.0
72.23,74.0
72.24,70.0
72.25,62.0
72.26,68.0
72.27,64.0
72.28,69.0
72.29,65.0
72.3,77.0
72.31,64.0
72.32,63.0
72.33,74.0
72.34,68.0
72.35,61.0
72.36,60.0
72.37,83.0
72.38,81.0
72.39,56.0
72.4,75.0
72.41,59.0
72.42,64.0
72.43,76.0
72.44,61.0
72.45,67.0
72.46,70.0
72.47,55.0
72.48,59.0
72.49,61.0
72.5,63.0
72.51,60.0
72.52,65.0
72.53,68.0
72.54,65.0
72.55,67.0
72.56,63.0
72.57,63.0
72.58,59.0
72.59,79.0
72.6,70.0
72.61,62.0
72.62,53.0
72.63,76.0
72.64,60.0
72.65,67.0
72.66,70.0
72.67,71.0
72.68,44.0
72.69,57.0
72.7,71.0
72.71,71.0
72.72,70.0
72.73,79.0
72.74,55.0
72.75,62.0
72.76,65.0
72.77,65.0
72.78,64.0
72.79,64.0
72.8,68.0
72.81,65.0
72.82,64.0
72.83,57.0
72.84,60.0
72.85,76.0
72.86,66.0
72.87,43.0
72.88,46.0
72.89,47.0
72.9,57.0
72.91,46.0
72.92,62.0
72.93,63.0
72.94,61.0
72.95,68.0
72.96,51.0
72.97,71.0
72.98,59.0
72.99,55.0
73.0,52.0
73.01,61.0
73.02,73.0
73.03,58.0
73.04,56.0
73.05,61.0
73.06,60.0
73.07,66.0
73.08,62.0
73.09,65.0
73.1,54.0
73.11,55.0
73.12,61.0
73.13,59.0
73.14,59.0
73.15,61.0
73.16,51.0
73.17,56.0
73.18,58.0
73.19,63.0
73.2,68.0
73.21,60.0
73.22,67.0
73.23,60.0
73.24,58.0
73.25,72.0
73.26,63.0
73.27,47.0
73.28,39.0
73.29,53.0
73.3,73.0
73.31,54.0
73.32,63.0
73.33,60.0
73.34,55.0
73.35,55.0
73.36,66.0
73.37,63.0
73.38,56.0
73.39,63.0
73.4,53.0
73.41,59.0
73.42,49.0
73.43,75.0
73.44,63.0
73.45,46.0
73.46,69.0
73.47,61.0
73.48,56.0
73.49,46.0
73.5,48.0
73.51,55.0
73.52,79.0
73.53,57.0
73.54,54.0
73.55,70.0
73.56,59.0
73.57,62.0
73.58,49.0
73.59,67.0
73.6,59.0
73.61,67.0
73.62,58.0
73.63,65.0
73.64,80.0
73.65,59.0
73.66,54.0
73.67,63.0
73.68,72.0
73.69,61.0
73.7,62.0
73.71,60.0
73.72,52.0
73.73,59.0
73.74,58.0
73.75,61.0
73.76,49.0
73.77,45.0
73.78,50.0
73.79,59.0
73.8,59.0
73.81,58.0
73.82,62.0
73.83,65.0
73.84,64.0
73.85,57.0
73.86,51.0
73.87,58.0
73.88,64.0
73.89,56.0
73.9,77.0
73.91,62.0
73.92,72.0
73.93,73.0
73.94,72.0
73.95,54.0
73.96,68.0
73.97,63.0
73.98,67.0
73.99,49.0
74.0,60.0
74.01,61.0
74.02,51.0
74.03,61.0
74.04,59.0
74.05,70.0
74.06,80.0
74.07,75.0
74.08,71.0
74.09,68.0
74.1,73.0
74.11,65.0
74.12,62.0
74.13,58.0
74.14,62.0
74.15,69.0
74.16,59.0
74.17,72.0
74.18,51.0
74.19,65.0
74.2,57.0
74.21,50.0
74.22,59.0
74.23,66.0
74.24,59.0
74.25,75.0
74.26,71.0
74.27,61.0
74.28,60.0
74.29,60.0
74.3,65.0
74.31,67.0
74.32,71.0
74.33,55.0
74.34,59.0
74.35,60.0
74.36,47.0
74.37,56.0
74.38,60.0
74.39,59.0
74.4,66.0
74.41,67.0
74.42,58.0
74.43,54.0
74.44,69.0
74.45,53.0
74.46,57.0
74.47,64.0
74.48,54.0
74.49,54.0
74.5,66.0
74.51,59.0
74.52,51.0
74.53,66.0
74.54,58.0
74.55,67.0
74.56,78.0
74.57,77.0
74.58,73.0
74.59,70.0
74.6,53.0
74.61,60.0
74.62,47.0
74.63,52.0
74.64,57.0
74.65,62.0
74.66,52.0
74.67,61.0
74.68,60.0
74.69,63.0
74.7,61.0
74.71,74.0
74.72,73.0
74.73,57.0
74.74,55.0
74.75,68.0
74.76,59.0
74.77,59.0
74.78,64.0
74.79,59.0
74.8,72.0
74.81,48.0
74.82,65.0
74.83,68.0
74.84,80.0
74.85,65.0
74.86,60.0
74.87,72.0
74.88,70.0
74.89,62.0
74.9,61.0
74.91,95.0
74.92,78.0
74.93,55.0
74.94,64.0
74.95,75.0
74.96,61.0
74.97,67.0
74.98,61.0
74.99,71.0
75.0,69.0
75.01,62.0
75.02,66.0
75.03,53.0
75.04,64.0
75.05,62.0
75.06,59.0
75.07,65.0
75.08,72.0
75.09,68.0
75.1,62.0
75.11,64.0
75.12,80.0
75.13,69.0
75.14,59.0
75.15,58.0
75.16,68.0
75.17,75.0
75.18,74.0
75.19,68.0
75.2,56.0
75.21,58.0
75.22,61.0
75.23,55.0
75.24,66.0
75.25,68.0
75.26,61.0
75.27,68.0
75.28,55.0
75.29,56.0
75.3,60.0
75.31,58.0
75.32,64.0
75.33,72.0
75.34,73.0
75.35,58.0
75.36,68.0
75.37,76.0
75.38,72.0
75.39,65.0
75.4,65.0
75.41,54.0
75.42,67.0
75.43,69.0
75.44,60.0
75.45,65.0
75.46,81.0
75.47,78.0
75.48,54.0
75.49,59.0
75.5,54.0
75.51,70.0
75.52,71.0
75.53,76.0
75.54,62.0
75.55,67.0
75.56,78.0
75.57,60.0
75.58,79.0
75.59,63.0
75.6,65.0
75.61,60.0
75.62,69.0
75.63,67.0
75.64,59.0
75.65,57.0
75.66,52.0
75.67,58.0
75.68,60.0
75.69,63.0
75.7,64.0
75.71,57.0
75.72,79.0
75.73,52.0
75.74,57.0
75.75,63.0
75.76,52.0
75.77,77.0
75.78,66.0
75.79,52.0
75.8,59.0
75.81,76.0
75.82,67.0
75.83,61.0
75.84,59.0
75.85,64.0
75.86,56.0
75.87,56.0
75.88,53.0
75.89,62.0
75.9,56.0
75.91,69.0
75.92,58.0
75.93,79.0
75.94,66.0
75.95,56.0
75.96,63.0
75.97,58.0
75.98,57.0
75.99,57.0
76.0,59.0
76.01,61.0
76.02,67.0
76.03,57.0
76.04,82.0
76.05,71.0
76.06,44.0
76.07,51.0
76.08,63.0
76.09,58.0
76.1,70.0
76.11,61.0
76.12,62.0
76.13,52.0
76.14,59.0
76.15,69.0
76.16,53.0
76.17,60.0
76.18,53.0
76.19,74.0
76.2,57.0
76.21,59.0
76.22,70.0
76.23,58.0
76.24,66.0
76.25,68.0
76.26,70.0
76.27,62.0
76.28,61.0
76.29,59.0
76.3,64.0
76.31,68.0
76.32,65.0
76.33,59.0
76.34,71.0
76.35,65.0
76.36,73.0
76.37,67.0
76.38,52.0
76.39,70.0
76.4,63.0
76.41,63.0
76.42,49.0
76.43,50.0
76.44,68.0
76.45,58.0
76.46,56.0
76.47,53.0
76.48,57.0
76.49,67.0
76.5,52.0
76.51,60.0
76.52,71.0
76.53,54.0
76.54,52.0
76.55,52.0
76.56,59.0
76.57,74.0
76.58,66.0
76.59,62.0
76.6,56.0
76.61,46.0
76.62,62.0
76.63,66.0
76.64,57.0
76.65,46.0
76.66,63.0
76.67,59.0
76.68,62.0
76.69,65.0
76.7,66.0
76.71,58.0
76.72,61.0
76.73,61.0
76.74,56.0
76.75,67.0
76.76,61.0
76.77,62.0
76.78,62.0
76.79,56.0
76.8,47.0
76.81,64.0
76.82,53.0
76.83,49.0
76.84,65.0
76.85,70.0
76.86,65.0
76.87,52.0
76.88,54.0
76.89,67.0
76.9,55.0
76.91,72.0
76.92,73.0
76.93,64.0
76.94,51.0
76.95,56.0
76.96,59.0
76.97,59.0
76.98,53.0
76.99,59.0
77.0,69.0
77.01,57.0
77.02,61.0
77.03,59.0
77.04,57.0
77.05,57.0
77.06,52.0
77.07,50.0
77.08,61.0
77.09,67.0
77.1,63.0
77.11,64.0
77.12,56.0
77.13,72.0
77.14,61.0
77.15,74.0
77.16,55.0
77.17,61.0
77.18,66.0
77.19,52.0
77.2,69.0
77.21,62.0
77.22,55.0
77.23,60.0
77.24,57.0
77.25,58.0
77.26,71.0
77.27,61.0
77.28,54.0
77.29,49.0
77.3,57.0
77.31,66.0
77.32,65.0
77.33,63.0
77.34,59.0
77.35,65.0
77.36,59.0
77.37,58.0
77.38,50.0
77.39,69.0
77.4,57.0
77.41,57.0
77.42,65.0
77.43,61.0
77.44,63.0
77.45,69.0
77.46,73.0
77.47,63.0
77.48,60.0
77.49,60.0
77.5,71.0
77.51,74.0
77.52,61.0
77.53,69.0
77.54,71.0
77.55,64.0
77.56,69.0
77.57,60.0
77.58,62.0
77.59,49.0
77.6,43.0
77.61,59.0
77.62,63.0
77.63,63.0
77.64,61.0
77.65,59.0
77.66,59.0
77.67,67.0
77.68,54.0
77.69,51.0
77.7,65.0
77.71,53.0
77.72,57.0
77.73,59.0
77.74,60.0
77.75,65.0
77.76,51.0
77.77,59.0
77.78,62.0
77.79,72.0
77.8,89.0
77.81,60.0
77.82,61.0
77.83,56.0
77.84,65.0
77.85,67.0
77.86,54.0
77.87,56.0
77.88,77.0
77.89,66.0
77.9,62.0
77.91,52.0
77.92,57.0
77.93,77.0
77.94,61.0
77.95,51.0
77.96,48.0
77.97,61.0
77.98,74.0
77.99,38.0
78.0,60.0
78.01,62.0
78.02,56.0
78.03,62.0
78.04,68.0
78.05,58.0
78.06,65.0
78.07,54.0
78.08,56.0
78.09,62.0
78.1,56.0
78.11,54.0
78.12,56.0
78.13,63.0
78.14,62.0
78.15,70.0
78.16,54.0
78.17,52.0
78.18,54.0
78.19,60.0
78.2,65.0
78.21,65.0
78.22,67.0
78.23,54.0
78.24,57.0
78.25,68.0
78.26,66.0
78.27,62.0
78.28,59.0
78.29,46.0
78.3,56.0
78.31,57.0
78.32,59.0
78.33,62.0
78.34,75.0
78.35,63.0
78.36,63.0
78.37,58.0
78.38,59.0
78.39,52.0
78.4,59.0
78.41,52.0
78.42,65.0
78.43,58.0
78.44,72.0
78.45,48.0
78.46,57.0
78.47,67.0
78.48,49.0
78.49,61.0
78.5,49.0
78.51,52.0
78.52,59.0
78.53,62.0
78.54,56.0
78.55,55.0
78.56,57.0
78.57,62.0
78.58,56.0
78.59,64.0
78.6,60.0
78.61,60.0
78.62,64.0
78.63,60.0
78.64,45.0
78.65,61.0
78.66,55.0
78.67,61.0
78.68,60.0
78.69,50.0
78.7,65.0
78.71,55.0
78.72,59.0
78.73,64.0
78.74,59.0
78.75,50.0
78.76,60.0
78.77,45.0
78.78,60.0
78.79,40.0
78.8,65.0
78.81,58.0
78.82,61.0
78.83,68.0
78.84,53.0
78.85,58.0
78.86,57.0
78.87,51.0
78.88,69.0
78.89,62.0
78.9,55.0
78.91,64.0
78.92,63.0
78.93,53.0
78.94,71.0
78.95,77.0
78.96,64.0
78.97,63.0
78.98,58.0
78.99,62.0
79.0,51.0
79.01,59.0
79.02,59.0
79.03,68.0
79.04,56.0
79.05,49.0
79.06,66.0
79.07,63.0
79.08,65.0
79.09,68.0
79.1,55.0
79.11,57.0
79.12,64.0
79.13,64.0
79.14,58.0
79.15,76.0
79.16,59.0
79.17,52.0
79.18,56.0
79.19,42.0
79.2,59.0
79.21,53.0
79.22,63.0
79.23,53.0
79.24,69.0
79.25,60.0
79.26,51.0
79.27,49.0
79.28,54.0
79.29,64.0
79.3,65.0
79.31,51.0
79.32,55.0
79.33,65.0
79.34,68.0
79.35,72.0
79.36,73.0
79.37,60.0
79.38,61.0
79.39,50.0
79.4,68.0
79.41,44.0
79.42,56.0
79.43,48.0
79.44,55.0
79.45,62.0
79.46,44.0
79.47,60.0
79.48,53.0
79.49,67.0
79.5,52.0
79.51,56.0
79.52,49.0
79.53,67.0
79.54,55.0
79.55,61.0
79.56,70.0
79.57,64.0
79.58,60.0
79.59,62.0
79.6,65.0
79.61,74.0
79.62,67.0
79.63,62.0
79.64,68.0
79.65,71.0
79.66,79.0
79.67,64.0
79.68,50.0
79.69,79.0
79.7,51.0
79.71,60.0
79.72,57.0
79.73,56.0
79.74,71.0
79.75,55.0
79.76,63.0
79.77,62.0
79.78,74.0
79.79,70.0
79.8,61.0
79.81,79.0
79.82,72.0
79.83,63.0
79.84,71.0
79.85,54.0
79.86,58.0
79.87,60.0
79.88,72.0
79.89,60.0
79.9,52.0
79.91,77.0
79.92,80.0
79.93,58.0
79.94,60.0
79.95,58.0
79.96,60.0
79.97,60.0
79.98,53.0
79.99,57.0
80.0,63.0
80.01,51.0
80.02,60.0
80.03,67.0
80.04,55.0
80.05,62.0
80.06,58.0
80.07,48.0
80.08,46.0
80.09,57.0
80.1,73.0
80.11,51.0
80.12,65.0
80.13,66.0
80.14,70.0
80.15,68.0
80.16,69.0
80.17,67.0
80.18,67.0
80.19,58.0
80.2,64.0
80.21,55.0
80.22,47.0
80.23,50.0
80.24,60.0
80.25,74.0
80.26,82.0
80.27,66.0
80.28,62.0
80.29,48.0
80.3,57.0
80.31,74.0
80.32,80.0
80.33,50.0
80.34,61.0
80.35,61.0
80.36,54.0
80.37,55.0
80.38,64.0
80.39,59.0
80.4,61.0
80.41,57.0
80.42,75.0
80.43,63.0
80.44,62.0
80.45,68.0
80.46,62.0
80.47,57.0
80.48,59.0
80.49,62.0
80.5,59.0
80.51,41.0
80.52,60.0
80.53,66.0
80.54,59.0
80.55,54.0
80.56,66.0
80.57,59.0
80.58,60.0
80.59,60.0
80.6,63.0
80.61,57.0
80.62,61.0
80.63,61.0
80.64,60.0
80.65,73.0
80.66,47.0
80.67,58.0
80.68,61.0
80.69,59.0
80.7,54.0
80.71,60.0
80.72,63.0
80.73,58.0
80.74,57.0
80.75,65.0
80.76,57.0
80.77,59.0
80.78,55.0
80.79,64.0
80.8,58.0
80.81,55.0
80.82,65.0
80.83,68.0
80.84,48.0
80.85,60.0
80.86,66.0
80.87,66.0
80.88,69.0
80.89,68.0
80.9,59.0
80.91,58.0
80.92,65.0
80.93,66.0
80.94,53.0
80.95,56.0
80.96,57.0
80.97,57.0
80.98,57.0
80.99,71.0
81.0,56.0
81.01,54.0
81.02,61.0
81.03,53.0
81.04,47.0
81.05,58.0
81.06,44.0
81.07,61.0
81.08,57.0
81.09,54.0
81.1,60.0
81.11,55.0
81.12,63.0
81.13,59.0
81.14,56.0
81.15,70.0
81.16,52.0
81.17,51.0
81.18,59.0
81.19,62.0
81.2,48.0
81.21,51.0
81.22,58.0
81.23,59.0
81.24,69.0
81.25,52.0
81.26,54.0
81.27,51.0
81.28,53.0
81.29,58.0
81.3,63.0
81.31,57.0
81.32,64.0
81.33,54.0
81.34,66.0
81.35,52.0
81.36,48.0
81.37,55.0
81.38,55.0
81.39,58.0
81.4,59.0
81.41,47.0
81.42,48.0
81.43,63.0
81.44,46.0
81.45,60.0
81.46,57.0
81.47,55.0
81.48,57.0
81.49,68.0
81.5,58.0
81.51,56.0
81.52,77.0
81.53,48.0
81.54,71.0
81.55,51.0
81.56,65.0
81.57,58.0
81.58,60.0
81.59,65.0
81.6,49.0
81.61,51.0
81.62,70.0
81.63,57.0
81.64,63.0
81.65,51.0
81.66,72.0
81.67,49.0
81.68,48.0
81.69,67.0
81.7,63.0
81.71,52.0
81.72,57.0
81.73,74.0
81.74,63.0
81.75,59.0
81.76,57.0
81.77,74.0
81.78,60.0
81.79,73.0
81.8,67.0
81.81,72.0
81.82,57.0
81.83,64.0
81.84,72.0
81.85,62.0
81.86,57.0
81.87,60.0
81.88,67.0
81.89,55.0
81.9,62.0
81.91,69.0
81.92,45.0
81.93,55.0
81.94,56.0
81.95,60.0
81.96,43.0
81.97,64.0
81.98,51.0
81.99,59.0
82.0,72.0
82.01,56.0
82.02,59.0
82.03,41.0
82.04,68.0
82.05,79.0
82.06,56.0
82.07,49.0
82.08,49.0
82.09,55.0
82.1,55.0
82.11,75.0
82.12,54.0
82.13,63.0
82.14,48.0
82.15,55.0
82.16,57.0
82.17,63.0
82.18,75.0
82.19,66.0
82.2,52.0
82.21,73.0
82.22,55.0
82.23,43.0
82.24,52.0
82.25,52.0
82.26,79.0
82.27,69.0
82.28,44.0
82.29,72.0
82.3,58.0
82.31,58.0
82.32,56.0
82.33,57.0
82.34,60.0
82.35,60.0
82.36,67.0
82.37,69.0
82.38,55.0
82.39,50.0
82.4,55.0
82.41,48.0
82.42,60.0
82.43,52.0
82.44,59.0
82.45,66.0
82.46,65.0
82.47,56.0
82.48,63.0
82.49,64.0
82.5,65.0
82.51,60.0
82.52,65.0
82.53,61.0
82.54,59.0
82.55,77.0
82.56,41.0
82.57,48.0
82.58,53.0
82.59,53.0
82.6,52.0
82.61,74.0
82.62,57.0
82.63,55.0
82.64,65.0
82.65,50.0
82.66,65.0
82.67,59.0
82.68,55.0
82.69,56.0
82.7,58.0
82.71,55.0
82.72,34.0
82.73,67.0
82.74,63.0
82.75,37.0
82.76,44.0
82.77,63.0
82.78,63.0
82.79,50.0
82.8,43.0
82.81,56.0
82.82,50.0
82.83,51.0
82.84,50.0
82.85,61.0
82.86,70.0
82.87,56.0
82.88,59.0
82.89,66.0
82.9,54.0
82.91,49.0
82.92,55.0
82.93,61.0
82.94,65.0
82.95,45.0
82.96,50.0
82.97,53.0
82.98,67.0
82.99,65.0
83.0,53.0
83.01,54.0
83.02,63.0
83.03,54.0
83.04,64.0
83.05,60.0
83.06,60.0
83.07,60.0
83.08,61.0
83.09,45.0
83.1,47.0
83.11,67.0
83.12,49.0
83.13,53.0
83.14,73.0
83.15,75.0
83.16,56.0
83.17,64.0
83.18,41.0
83.19,68.0
83.2,41.0
83.21,64.0
83.22,61.0
83.23,48.0
83.24,62.0
83.25,64.0
83.26,65.0
83.27,69.0
83.28,52.0
83.29,63.0
83.3,58.0
83.31,64.0
83.32,61.0
83.33,47.0
83.34,63.0
83.35,68.0
83.36,75.0
83.37,57.0
83.38,70.0
83.39,67.0
83.4,72.0
83.41,56.0
83.42,66.0
83.43,70.0
83.44,58.0
83.45,66.0
83.46,61.0
83.47,56.0
83.48,61.0
83.49,69.0
83.5,60.0
83.51,54.0
83.52,66.0
83.53,59.0
83.54,75.0
83.55,66.0
83.56,59.0
83.57,50.0
83.58,61.0
83.59,78.0
83.6,57.0
83.61,45.0
83.62,66.0
83.63,61.0
83.64,65.0
83.65,46.0
83.66,46.0
83.67,69.0
83.68,43.0
83.69,53.0
83.7,67.0
83.71,61.0
83.72,71.0
83.73,54.0
83.74,64.0
83.75,54.0
83.76,58.0
83.77,45.0
83.78,59.0
83.79,59.0
83.8,53.0
83.81,76.0
83.82,57.0
83.83,53.0
83.84,55.0
83.85,56.0
83.86,57.0
83.87,52.0
83.88,57.0
83.89,62.0
83.9,58.0
83.91,55.0
83.92,77.0
83.93,60.0
83.94,58.0
83.95,56.0
83.96,63.0
83.97,58.0
83.98,51.0
83.99,77.0
84.0,55.0
84.01,60.0
84.02,53.0
84.03,54.0
84.04,45.0
84.05,50.0
84.06,72.0
84.07,61.0
84.08,53.0
84.09,48.0
84.1,55.0
84.11,57.0
84.12,60.0
84.13,58.0
84.14,59.0
84.15,64.0
84.16,62.0
84.17,63.0
84.18,61.0
84.19,67.0
84.2,53.0
84.21,71.0
84.22,74.0
84.23,62.0
84.24,60.0
84.25,54.0
84.26,83.0
84.27,68.0
84.28,62.0
84.29,71.0
84.3,52.0
84.31,60.0
84.32,64.0
84.33,50.0
84.34,66.0
84.35,61.0
84.36,72.0
84.37,62.0
84.38,55.0
84.39,53.0
84.4,61.0
84.41,47.0
84.42,62.0
84.43,48.0
84.44,56.0
84.45,71.0
84.46,54.0
84.47,73.0
84.48,59.0
84.49,54.0
84.5,47.0
84.51,60.0
84.52,51.0
84.53,63.0
84.54,57.0
84.55,64.0
84.56,62.0
84.57,50.0
84.58,59.0
84.59,63.0
84.6,60.0
84.61,55.0
84.62,52.0
84.63,54.0
84.64,69.0
84.65,57.0
84.66,46.0
84.67,65.0
84.68,54.0
84.69,76.0
84.7,67.0
84.71,65.0
84.72,59.0
84.73,68.0
84.74,64.0
84.75,68.0
84.76,57.0
84.77,55.0
84.78,69.0
84.79,55.0
84.8,53.0
84.81,61.0
84.82,58.0
84.83,42.0
84.84,52.0
84.85,61.0
84.86,57.0
84.87,57.0
84.88,62.0
84.89,66.0
84.9,60.0
84.91,68.0
84.92,71.0
84.93,68.0
84.94,58.0
84.95,62.0
84.96,51.0
84.97,62.0
84.98,56.0
84.99,50.0
85.0,54.0
85.01,72.0
85.02,69.0
85.03,57.0
85.04,46.0
85.05,71.0
85.06,52.0
85.07,66.0
85.08,60.0
85.09,55.0
85.1,60.0
85.11,54.0
85.12,75.0
85.13,59.0
85.14,64.0
85.15,58.0
85.16,68.0
85.17,60.0
85.18,49.0
85.19,61.0
85.2,75.0
85.21,58.0
85.22,59.0
85.23,66.0
85.24,54.0
85.25,52.0
85.26,60.0
85.27,57.0
85.28,62.0
85.29,55.0
85.3,71.0
85.31,59.0
85.32,72.0
85.33,63.0
85.34,61.0
85.35,59.0
85.36,76.0
85.37,55.0
85.38,54.0
85.39,66.0
85.4,52.0
85.41,75.0
85.42,61.0
85.43,66.0
85.44,64.0
85.45,53.0
85.46,62.0
85.47,48.0
85.48,55.0
85.49,50.0
85.5,52.0
85.51,43.0
85.52,70.0
85.53,61.0
85.54,44.0
85.55,66.0
85.56,54.0
85.57,47.0
85.58,39.0
85.59,49.0
85.6,70.0
85.61,61.0
85.62,46.0
85.63,62.0
85.64,54.0
85.65,73.0
85.66,58.0
85.67,58.0
85.68,66.0
85.69,65.0
85.7,75.0
85.71,64.0
85.72,52.0
85.73,59.0
85.74,52.0
85.75,59.0
85.76,52.0
85.77,65.0
85.78,54.0
85.79,85.0
85.8,67.0
85.81,53.0
85.82,47.0
85.83,62.0
85.84,51.0
85.85,61.0
85.86,68.0
85.87,47.0
85.88,57.0
85.89,51.0
85.9,56.0
85.91,57.0
85.92,66.0
85.93,59.0
85.94,63.0
85.95,69.0
85.96,73.0
85.97,67.0
85.98,56.0
85.99,70.0
86.0,67.0
86.01,58.0
86.02,62.0
86.03,51.0
86.04,51.0
86.05,54.0
86.06,62.0
86.07,60.0
86.08,55.0
86.09,65.0
86.1,59.0
86.11,41.0
86.12,52.0
86.13,61.0
86.14,56.0
86.15,64.0
86.16,63.0
86.17,59.0
86.18,71.0
86.19,70.0
86.2,60.0
86.21,59.0
86.22,62.0
86.23,68.0
86.24,61.0
86.25,59.0
86.26,57.0
86.27,57.0
86.28,68.0
86.29,55.0
86.3,57.0
86.31,62.0
86.32,59.0
86.33,55.0
86.34,64.0
86.35,54.0
86.36,62.0
86.37,57.0
86.38,61.0
86.39,60.0
86.4,67.0
86.41,48.0
86.42,62.0
86.43,69.0
86.44,55.0
86.45,66.0
86.46,69.0
86.47,67.0
86.48,63.0
86.49,51.0
86.5,49.0
86.51,51.0
86.52,56.0
86.53,74.0
86.54,49.0
86.55,60.0
86.56,52.0
86.57,63.0
86.58,51.0
86.59,62.0
86.6,70.0
86.61,53.0
86.62,57.0
86.63,64.0
86.64,58.0
86.65,59.0
86.66,50.0
86.67,63.0
86.68,48.0
86.69,71.0
86.7,50.0
86.71,65.0
86.72,58.0
86.73,62.0
86.74,61.0
86.75,66.0
86.76,67.0
86.77,62.0
86.78,62.0
86.79,59.0
86.8,59.0
86.81,52.0
86.82,67.0
86.83,40.0
86.84,66.0
86.85,64.0
86.86,66.0
86.87,76.0
86.88,65.0
86.89,52.0
86.9,68.0
86.91,44.0
86.92,64.0
86.93,59.0
86.94,61.0
86.95,59.0
86.96,66.0
86.97,61.0
86.98,56.0
86.99,57.0
87.0,58.0
87.01,63.0
87.02,58.0
87.03,50.0
87.04,62.0
87.05,61.0
87.06,50.0
87.07,52.0
87.08,68.0
87.09,56.0
87.1,52.0
87.11,77.0
87.12,60.0
87.13,59.0
87.14,55.0
87.15,69.0
87.16,66.0
87.17,57.0
87.18,60.0
87.19,59.0
87.2,57.0
87.21,67.0
87.22,52.0
87.23,56.0
87.24,66.0
87.25,75.0
87.26,70.0
87.27,57.0
87.28,57.0
87.29,59.0
87.3,64.0
87.31,60.0
87.32,66.0
87.33,54.0
87.34,69.0
87.35,45.0
87.36,70.0
87.37,62.0
87.38,55.0
87.39,56.0
87.4,52.0
87.41,55.0
87.42,58.0
87.43,65.0
87.44,70.0
87.45,61.0
87.46,56.0
87.47,62.0
87.48,64.0
87.49,60.0
87.5,56.0
87.51,59.0
87.52,59.0
87.53,65.0
87.54,64.0
87.55,67.0
87.56,69.0
87.57,56.0
87.58,59.0
87.59,48.0
87.6,73.0
87.61,64.0
87.62,76.0
87.63,63.0
87.64,51.0
87.65,65.0
87.66,60.0
87.67,74.0
87.68,71.0
87.69,57.0
87.7,53.0
87.71,56.0
87.72,76.0
87.73,65.0
87.74,53.0
87.75,58.0
87.76,67.0
87.77,64.0
87.78,59.0
87.79,83.0
87.8,57.0
87.81,72.0
87.82,53.0
87.83,68.0
87.84,53.0
87.85,63.0
87.86,62.0
87.87,74.0
87.88,66.0
87.89,68.0
87.9,56.0
87.91,49.0
87.92,68.0
87.93,63.0
87.94,71.0
87.95,64.0
87.96,61.0
87.97,52.0
87.98,60.0
87.99,65.0
88.0,73.0
88.01,73.0
88.02,65.0
88.03,45.0
88.04,52.0
88.05,52.0
88.06,70.0
88.07,67.0
88.08,42.0
88.09,68.0
88.1,69.0
88.11,65.0
88.12,68.0
88.13,62.0
88.14,69.0
88.15,64.0
88.16,64.0
88.17,71.0
88.18,64.0
88.19,53.0
88.2,53.0
88.21,74.0
88.22,77.0
88.23,60.0
88.24,48.0
88.25,51.0
88.26,62.0
88.27,56.0
88.28,46.0
88.29,63.0
88.3,55.0
88.31,56.0
88.32,60.0
88.33,55.0
88.34,64.0
88.35,65.0
88.36,63.0
88.37,66.0
88.38,56.0
88.39,55.0
88.4,50.0
88.41,45.0
88.42,60.0
88.43,61.0
88.44,62.0
88.45,51.0
88.46,66.0
88.47,59.0
88.48,56.0
88.49,68.0
88.5,56.0
88.51,63.0
88.52,51.0
88.53,67.0
88.54,58.0
88.55,51.0
88.56,61.0
88.57,60.0
88.58,75.0
88.59,74.0
88.6,67.0
88.61,67.0
88.62,57.0
88.63,53.0
88.64,71.0
88.65,63.0
88.66,61.0
88.67,52.0
88.68,55.0
88.69,59.0
88.7,61.0
88.71,68.0
88.72,47.0
88.73,53.0
88.74,45.0
88.75,61.0
88.76,51.0
88.77,49.0
88.78,55.0
88.79,63.0
88.8,63.0
88.81,71.0
88.82,61.0
88.83,64.0
88.84,70.0
88.85,46.0
88.86,45.0
88.87,58.0
88.88,50.0
88.89,67.0
88.9,69.0
88.91,55.0
88.92,53.0
88.93,55.0
88.94,53.0
88.95,59.0
88.96,56.0
88.97,62.0
88.98,64.0
88.99,64.0
89.0,68.0
89.01,63.0
89.02,60.0
89.03,62.0
89.04,63.0
89.05,72.0
89.06,63.0
89.07,59.0
89.08,47.0
89.09,74.0
89.1,56.0
89.11,59.0
89.12,44.0
89.13,55.0
89.14,57.0
89.15,69.0
89.16,52.0
89.17,46.0
89.18,59.0
89.19,41.0
89.2,58.0
89.21,59.0
89.22,51.0
89.23,64.0
89.24,61.0
89.25,62.0
89.26,59.0
89.27,59.0
89.28,63.0
89.29,47.0
89.3,61.0
89.31,53.0
89.32,50.0
89.33,47.0
89.34,52.0
89.35,65.0
89.36,58.0
89.37,46.0
89.38,82.0
89.39,72.0
89.4,50.0
89.41,53.0
89.42,58.0
89.43,53.0
89.44,48.0
89.45,50.0
89.46,68.0
89.47,50.0
89.48,54.0
89.49,68.0
89.5,54.0
89.51,68.0
89.52,48.0
89.53,60.0
89.54,71.0
89.55,58.0
89.56,65.0
89.57,62.0
89.58,60.0
89.59,51.0
89.6,69.0
89.61,56.0
89.62,59.0
89.63,58.0
89.64,62.0
89.65,55.0
89.66,49.0
89.67,59.0
89.68,72.0
89.69,64.0
89.7,66.0
89.71,49.0
89.72,60.0
89.73,55.0
89.74,53.0
89.75,48.0
89.76,51.0
89.77,50.0
89.78,65.0
89.79,67.0
89.8,72.0
89.81,56.0
89.82,61.0
89.83,59.0
89.84,52.0
89.85,67.0
89.86,45.0
89.87,53.0
89.88,56.0
89.89,56.0
89.9,59.0
89.91,73.0
89.92,51.0
89.93,60.0
89.94,61.0
89.95,64.0
89.96,68.0
89.97,60.0
89.98,47.0
89.99,62.0
90.0,49.0
