angle,intensity
5.0,68.0
5.01,72.0
5.02,75.0
5.03,67.0
5.04,80.0
5.05,73.0
5.06,67.0
5.07,56.0
5.08,93.0
5.09,58.0
5.1,74.0
5.11,65.0
5.12,74.0
5.13,73.0
5.14,64.0
5.15,86.0
5.16,59.0
5.17,68.0
5.18,63.0
5.19,57.0
5.2,70.0
5.21,63.0
5.22,70.0
5.23,73.0
5.24,75.0
5.25,65.0
5.26,59.0
5.27,63.0
5.28,63.0
5.29,80.0
5.3,52.0
5.31,64.0
5.32,70.0
5.33,61.0
5.34,77.0
5.35,68.0
5.36,80.0
5.37,89.0
5.38,58.0
5.39,66.0
5.4,67.0
5.41,72.0
5.42,66.0
5.43,57.0
5.44,88.0
5.45,77.0
5.46,63.0
5.47,57.0
5.48,66.0
5.49,74.0
5.5,65.0
5.51,71.0
5.52,57.0
5.53,67.0
5.54,71.0
5.55,72.0
5.56,67.0
5.57,72.0
5.58,84.0
5.59,74.0
5.6,69.0
5.61,70.0
5.62,65.0
5.63,61.0
5.64,76.0
5.65,87.0
5.66,68.0
5.67,71.0
5.68,93.0
5.69,67.0
5.7,64.0
5.71,64.0
5.72,68.0
5.73,63.0
5.74,72.0
5.75,74.0
5.76,80.0
5.77,82.0
5.78,69.0
5.79,62.0
5.8,60.0
5.81,72.0
5.82,84.0
5.83,78.0
5.84,64.0
5.85,69.0
5.86,74.0
5.87,73.0
5.88,67.0
5.89,66.0
5.9,75.0
5.91,76.0
5.92,88.0
5.93,95.0
5.94,78.0
5.95,67.0
5.96,67.0
5.97,77.0
5.98,66.0
5.99,69.0
6.0,81.0
6.01,80.0
6.02,67.0
6.03,70.0
6.04,67.0
6.05,69.0
6.06,60.0
6.07,77.0
6.08,52.0
6.09,72.0
6.1,71.0
6.11,82.0
6.12,72.0
6.13,75.0
6.14,76.0
6.15,85.0
6.16,71.0
6.17,73.0
6.18,79.0
6.19,89.0
6.2,68.0
6.21,67.0
6.22,72.0
6.23,76.0
6.24,62.0
6.25,69.0
6.26,76.0
6.27,78.0
6.28,80.0
6.29,86.0
6.3,77.0
6.31,71.0
6.32,59.0
6.33,75.0
6.34,69.0
6.35,70.0
6.36,68.0
6.37,72.0
6.38,62.0
6.39,62.0
6.4,68.0
6.41,70.0
6.42,75.0
6.43,79.0
6.44,63.0
6.45,78.0
6.46,59.0
6.47,78.0
6.48,75.0
6.49,86.0
6.5,71.0
6.51,79.0
6.52,71.0
6.53,74.0
6.54,73.0
6.55,82.0
6.56,77.0
6.57,68.0
6.58,88.0
6.59,81.0
6.6,74.0
6.61,73.0
6.62,98.0
6.63,77.0
6.64,108.0
6.65,74.0
6.66,68.0
6.67,88.0
6.68,67.0
6.69,77.0
6.7,99.0
6.71,57.0
6.72,86.0
6.73,69.0
6.74,66.0
6.75,68.0
6.76,81.0
6.77,62.0
6.78,79.0
6.79,85.0
6.8,68.0
6.81,74.0
6.82,64.0
6.83,79.0
6.84,66.0
6.85,73.0
6.86,79.0
6.87,86.0
6.88,65.0
6.89,73.0
6.9,83.0
6.91,85.0
6.92,74.0
6.93,69.0
6.94,75.0
6.95,75.0
6.96,72.0
6.97,79.0
6.98,65.0
6.99,91.0
7.0,66.0
7.01,89.0
7.02,93.0
7.03,96.0
7.04,85.0
7.05,73.0
7.06,76.0
7.07,93.0
7.08,61.0
7.09,84.0
7.1,89.0
7.11,76.0
7.12,69.0
7.13,76.0
7.14,81.0
7.15,86.0
7.16,81.0
7.17,75.0
7.18,84.0
7.19,86.0
7.2,96.0
7.21,78.0
7.22,84.0
7.23,82.0
7.24,62.0
7.25,76.0
7.26,66.0
7.27,62.0
7.28,88.0
7.29,82.0
7.3,90.0
7.31,83.0
7.32,94.0
7.33,83.0
7.34,96.0
7.35,85.0
7.36,72.0
7.37,79.0
7.38,79.0
7.39,68.0
7.4,74.0
7.41,88.0
7.42,85.0
7.43,76.0
7.44,71.0
7.45,75.0
7.46,82.0
7.47,87.0
7.48,68.0
7.49,75.0
7.5,87.0
7.51,91.0
7.52,73.0
7.53,81.0
7.54,98.0
7.55,81.0
7.56,89.0
7.57,77.0
7.58,69.0
7.59,86.0
7.6,77.0
7.61,70.0
7.62,85.0
7.63,97.0
7.64,86.0
7.65,74.0
7.66,72.0
7.67,101.0
7.68,85.0
7.69,77.0
7.7,91.0
7.71,75.0
7.72,73.0
7.73,61.0
7.74,83.0
7.75,68.0
7.76,79.0
7.77,76.0
7.78,87.0
7.79,86.0
7.8,80.0
7.81,80.0
7.82,84.0
7.83,88.0
7.84,98.0
7.85,79.0
7.86,61.0
7.87,80.0
7.88,104.0
7.89,92.0
7.9,88.0
7.91,76.0
7.92,88.0
7.93,84.0
7.94,88.0
7.95,101.0
7.96,74.0
7.97,72.0
7.98,80.0
7.99,96.0
8.0,77.0
8.01,84.0
8.02,85.0
8.03,82.0
8.04,97.0
8.05,91.0
8.06,84.0
8.07,76.0
8.08,83.0
8.09,91.0
8.1,84.0
8.11,68.0
8.12,84.0
8.13,82.0
8.14,85.0
8.15,82.0
8.16,81.0
8.17,89.0
8.18,96.0
8.19,88.0
8.2,92.0
8.21,83.0
8.22,66.0
8.23,83.0
8.24,56.0
8.25,94.0
8.26,81.0
8.27,76.0
8.28,75.0
8.29,84.0
8.3,81.0
8.31,77.0
8.32,85.0
8.33,96.0
8.34,86.0
8.35,65.0
8.36,89.0
8.37,72.0
8.38,92.0
8.39,80.0
8.4,79.0
8.41,75.0
8.42,94.0
8.43,82.0
8.44,77.0
8.45,84.0
8.46,85.0
8.47,87.0
8.48,78.0
8.49,53.0
8.5,88.0
8.51,79.0
8.52,69.0
8.53,84.0
8.54,79.0
8.55,89.0
8.56,75.0
8.57,58.0
8.58,69.0
8.59,93.0
8.6,71.0
8.61,94.0
8.62,77.0
8.63,84.0
8.64,81.0
8.65,88.0
8.66,81.0
8.67,90.0
8.68,82.0
8.69,80.0
8.7,93.0
8.71,89.0
8.72,88.0
8.73,65.0
8.74,101.0
8.75,79.0
8.76,70.0
8.77,76.0
8.78,85.0
8.79,87.0
8.8,73.0
8.81,89.0
8.82,97.0
8.83,89.0
8.84,94.0
8.85,79.0
8.86,101.0
8.87,86.0
8.88,80.0
8.89,77.0
8.9,96.0
8.91,87.0
8.92,81.0
8.93,82.0
8.94,81.0
8.95,87.0
8.96,78.0
8.97,86.0
8.98,78.0
8.99,79.0
9.0,94.0
9.01,69.0
9.02,72.0
9.03,83.0
9.04,63.0
9.05,109.0
9.06,73.0
9.07,79.0
9.08,98.0
9.09,74.0
9.1,95.0
9.11,88.0
9.12,69.0
9.13,74.0
9.14,76.0
9.15,82.0
9.16,99.0
9.17,91.0
9.18,76.0
9.19,83.0
9.2,72.0
9.21,94.0
9.22,80.0
9.23,75.0
9.24,84.0
9.25,91.0
9.26,94.0
9.27,86.0
9.28,87.0
9.29,86.0
9.3,89.0
9.31,90.0
9.32,89.0
9.33,88.0
9.34,74.0
9.35,80.0
9.36,95.0
9.37,80.0
9.38,78.0
9.39,74.0
9.4,84.0
9.41,87.0
9.42,89.0
9.43,88.0
9.44,77.0
9.45,95.0
9.46,91.0
9.47,86.0
9.48,78.0
9.49,80.0
9.5,81.0
9.51,72.0
9.52,78.0
9.53,96.0
9.54,78.0
9.55,71.0
9.56,78.0
9.57,74.0
9.58,79.0
9.59,71.0
9.6,66.0
9.61,72.0
9.62,83.0
9.63,75.0
9.64,83.0
9.65,77.0
9.66,82.0
9.67,77.0
9.68,85.0
9.69,82.0
9.7,80.0
9.71,91.0
9.72,65.0
9.73,86.0
9.74,88.0
9.75,78.0
9.76,79.0
9.77,67.0
9.78,72.0
9.79,76.0
9.8,83.0
9.81,87.0
9.82,75.0
9.83,73.0
9.84,80.0
9.85,77.0
9.86,72.0
9.87,92.0
9.88,81.0
9.89,90.0
9.9,87.0
9.91,82.0
9.92,99.0
9.93,68.0
9.94,78.0
9.95,90.0
9.96,93.0
9.97,81.0
9.98,88.0
9.99,82.0
10.0,86.0
10.01,87.0
10.02,79.0
10.03,80.0
10.04,71.0
10.05,77.0
10.06,91.0
10.07,77.0
10.08,82.0
10.09,75.0
10.1,80.0
10.11,110.0
10.12,82.0
10.13,91.0
10.14,81.0
10.15,65.0
10.16,78.0
10.17,81.0
10.18,69.0
10.19,75.0
10.2,96.0
10.21,91.0
10.22,90.0
10.23,92.0
10.24,83.0
10.25,72.0
10.26,92.0
10.27,93.0
10.28,82.0
10.29,76.0
10.3,82.0
10.31,72.0
10.32,84.0
10.33,75.0
10.34,84.0
10.35,104.0
10.36,72.0
10.37,85.0
10.38,79.0
10.39,83.0
10.4,84.0
10.41,85.0
10.42,85.0
10.43,66.0
10.44,85.0
10.45,92.0
10.46,82.0
10.47,80.0
10.48,92.0
10.49,75.0
10.5,80.0
10.51,69.0
10.52,71.0
10.53,79.0
10.54,80.0
10.55,77.0
10.56,62.0
10.57,85.0
10.58,87.0
10.59,75.0
10.6,79.0
10.61,73.0
10.62,82.0
10.63,81.0
10.64,72.0
10.65,89.0
10.66,81.0
10.67,81.0
10.68,84.0
10.69,83.0
10.7,69.0
10.71,74.0
10.72,80.0
10.73,82.0
10.74,80.0
10.75,88.0
10.76,78.0
10.77,78.0
10.78,79.0
10.79,91.0
10.8,83.0
10.81,89.0
10.82,78.0
10.83,79.0
10.84,80.0
10.85,102.0
10.86,68.0
10.87,71.0
10.88,70.0
10.89,93.0
10.9,73.0
10.91,95.0
10.92,92.0
10.93,85.0
10.94,101.0
10.95,97.0
10.96,64.0
10.97,84.0
10.98,72.0
10.99,86.0
11.0,70.0
11.01,90.0
11.02,79.0
11.03,88.0
11.04,80.0
11.05,99.0
11.06,76.0
11.07,68.0
11.08,87.0
11.09,85.0
11.1,74.0
11.11,91.0
11.12,89.0
11.13,94.0
11.14,77.0
11.15,80.0
11.16,73.0
11.17,72.0
11.18,81.0
11.19,95.0
11.2,87.0
11.21,67.0
11.22,69.0
11.23,89.0
11.24,73.0
11.25,76.0
11.26,96.0
11.27,70.0
11.28,78.0
11.29,70.0
11.3,82.0
11.31,85.0
11.32,82.0
11.33,78.0
11.34,95.0
11.35,68.0
11.36,73.0
11.37,87.0
11.38,94.0
11.39,83.0
11.4,72.0
11.41,89.0
11.42,94.0
11.43,80.0
11.44,90.0
11.45,80.0
11.46,96.0
11.47,81.0
11.48,95.0
11.49,87.0
11.5,70.0
11.51,91.0
11.52,80.0
11.53,77.0
11.54,100.0
11.55,85.0
11.56,76.0
11.57,90.0
11.58,82.0
11.59,83.0
11.6,79.0
11.61,85.0
11.62,76.0
11.63,83.0
11.64,94.0
11.65,76.0
11.66,78.0
11.67,100.0
11.68,78.0
11.69,92.0
11.7,74.0
11.71,68.0
11.72,71.0
11.73,66.0
11.74,89.0
11.75,83.0
11.76,92.0
11.77,84.0
11.78,78.0
11.79,79.0
11.8,84.0
11.81,85.0
11.82,79.0
11.83,81.0
11.84,85.0
11.85,75.0
11.86,77.0
11.87,77.0
11.88,81.0
11.89,82.0
11.9,99.0
11.91,70.0
11.92,89.0
11.93,68.0
11.94,85.0
11.95,88.0
11.96,94.0
11.97,79.0
11.98,73.0
11.99,81.0
12.0,68.0
12.01,74.0
12.02,84.0
12.03,86.0
12.04,93.0
12.05,81.0
12.06,71.0
12.07,77.0
12.08,70.0
12.09,83.0
12.1,80.0
12.11,74.0
12.12,79.0
12.13,74.0
12.14,79.0
12.15,80.0
12.16,72.0
12.17,84.0
12.18,64.0
12.19,94.0
12.2,78.0
12.21,84.0
12.22,80.0
12.23,103.0
12.24,98.0
12.25,86.0
12.26,80.0
12.27,81.0
12.28,78.0
12.29,80.0
12.3,90.0
12.31,96.0
12.32,84.0
12.33,100.0
12.34,88.0
12.35,84.0
12.36,88.0
12.37,68.0
12.38,70.0
12.39,89.0
12.4,93.0
12.41,87.0
12.42,74.0
12.43,90.0
12.44,90.0
12.45,87.0
12.46,84.0
12.47,76.0
12.48,86.0
12.49,71.0
12.5,92.0
12.51,87.0
12.52,98.0
12.53,66.0
12.54,77.0
12.55,79.0
12.56,96.0
12.57,69.0
12.58,87.0
12.59,86.0
12.6,83.0
12.61,87.0
12.62,93.0
12.63,79.0
12.64,78.0
12.65,94.0
12.66,95.0
12.67,83.0
12.68,90.0
12.69,84.0
12.7,72.0
12.71,81.0
12.72,85.0
12.73,68.0
12.74,92.0
12.75,67.0
12.76,91.0
12.77,79.0
12.78,73.0
12.79,76.0
12.8,81.0
12.81,86.0
12.82,66.0
12.83,88.0
12.84,99.0
12.85,78.0
12.86,93.0
12.87,87.0
12.88,74.0
12.89,93.0
12.9,88.0
12.91,93.0
12.92,86.0
12.93,93.0
12.94,78.0
12.95,61.0
12.96,85.0
12.97,81.0
12.98,70.0
12.99,82.0
13.0,81.0
13.01,92.0
13.02,71.0
13.03,72.0
13.04,72.0
13.05,81.0
13.06,76.0
13.07,82.0
13.08,86.0
13.09,84.0
13.1,84.0
13.11,81.0
13.12,100.0
13.13,91.0
13.14,79.0
13.15,72.0
13.16,94.0
13.17,94.0
13.18,92.0
13.19,89.0
13.2,76.0
13.21,71.0
13.22,85.0
13.23,86.0
13.24,79.0
13.25,85.0
13.26,83.0
13.27,72.0
13.28,88.0
13.29,98.0
13.3,88.0
13.31,100.0
13.32,80.0
13.33,84.0
13.34,88.0
13.35,94.0
13.36,76.0
13.37,85.0
13.38,81.0
13.39,88.0
13.4,79.0
13.41,75.0
13.42,97.0
13.43,72.0
13.44,85.0
13.45,81.0
13.46,90.0
13.47,83.0
13.48,83.0
13.49,84.0
13.5,82.0
13.51,80.0
13.52,87.0
13.53,82.0
13.54,91.0
13.55,68.0
13.56,93.0
13.57,86.0
13.58,79.0
13.59,82.0
13.6,97.0
13.61,97.0
13.62,80.0
13.63,77.0
13.64,83.0
13.65,85.0
13.66,78.0
13.67,84.0
13.68,90.0
13.69,91.0
13.7,76.0
13.71,78.0
13.72,88.0
13.73,93.0
13.74,73.0
13.75,64.0
13.76,85.0
13.77,80.0
13.78,80.0
13.79,71.0
13.8,72.0
13.81,72.0
13.82,103.0
13.83,84.0
13.84,85.0
13.85,75.0
13.86,84.0
13.87,86.0
13.88,92.0
13.89,77.0
13.9,84.0
13.91,92.0
13.92,76.0
13.93,68.0
13.94,83.0
13.95,81.0
13.96,77.0
13.97,84.0
13.98,74.0
13.99,75.0
14.0,86.0
14.01,77.0
14.02,78.0
14.03,89.0
14.04,88.0
14.05,71.0
14.06,90.0
14.07,77.0
14.08,89.0
14.09,89.0
14.1,77.0
14.11,67.0
14.12,84.0
14.13,94.0
14.14,93.0
14.15,93.0
14.16,86.0
14.17,93.0
14.18,86.0
14.19,70.0
14.2,75.0
14.21,84.0
14.22,72.0
14.23,88.0
14.24,82.0
14.25,84.0
14.26,78.0
14.27,87.0
14.28,92.0
14.29,85.0
14.3,84.0
14.31,77.0
14.32,85.0
14.33,77.0
14.34,73.0
14.35,88.0
14.36,81.0
14.37,78.0
14.38,77.0
14.39,72.0
14.4,82.0
14.41,83.0
14.42,74.0
14.43,75.0
14.44,78.0
14.45,94.0
14.46,77.0
14.47,75.0
14.48,84.0
14.49,69.0
14.5,68.0
14.51,95.0
14.52,73.0
14.53,82.0
14.54,91.0
14.55,85.0
14.56,81.0
14.57,80.0
14.58,67.0
14.59,99.0
14.6,83.0
14.61,64.0
14.62,73.0
14.63,63.0
14.64,82.0
14.65,84.0
14.66,80.0
14.67,75.0
14.68,67.0
14.69,79.0
14.7,88.0
14.71,76.0
14.72,78.0
14.73,80.0
14.74,83.0
14.75,76.0
14.76,65.0
14.77,88.0
14.78,79.0
14.79,78.0
14.8,67.0
14.81,86.0
14.82,85.0
14.83,92.0
14.84,76.0
14.85,77.0
14.86,78.0
14.87,89.0
14.88,78.0
14.89,81.0
14.9,78.0
14.91,66.0
14.92,71.0
14.93,79.0
14.94,69.0
14.95,84.0
14.96,88.0
14.97,80.0
14.98,83.0
14.99,88.0
15.0,64.0
15.01,72.0
15.02,75.0
15.03,80.0
15.04,81.0
15.05,85.0
15.06,71.0
15.07,97.0
15.08,68.0
15.09,93.0
15.1,100.0
15.11,74.0
15.12,75.0
15.13,86.0
15.14,68.0
15.15,88.0
15.16,76.0
15.17,76.0
15.18,88.0
15.19,80.0
15.2,78.0
15.21,80.0
15.22,74.0
15.23,93.0
15.24,79.0
15.25,84.0
15.26,84.0
15.27,71.0
15.28,74.0
15.29,74.0
15.3,74.0
15.31,95.0
15.32,73.0
15.33,84.0
15.34,93.0
15.35,84.0
15.36,92.0
15.37,89.0
15.38,76.0
15.39,78.0
15.4,79.0
15.41,72.0
15.42,61.0
15.43,79.0
15.44,91.0
15.45,90.0
15.46,82.0
15.47,81.0
15.48,92.0
15.49,73.0
15.5,77.0
15.51,86.0
15.52,79.0
15.53,73.0
15.54,93.0
15.55,81.0
15.56,63.0
15.57,71.0
15.58,87.0
15.59,91.0
15.6,77.0
15.61,88.0
15.62,66.0
15.63,75.0
15.64,66.0
15.65,66.0
15.66,80.0
15.67,82.0
15.68,90.0
15.69,85.0
15.7,85.0
15.71,70.0
15.72,81.0
15.73,87.0
15.74,84.0
15.75,68.0
15.76,80.0
15.77,85.0
15.78,80.0
15.79,88.0
15.8,84.0
15.81,68.0
15.82,81.0
15.83,86.0
15.84,70.0
15.85,83.0
15.86,80.0
15.87,82.0
15.88,77.0
15.89,82.0
15.9,85.0
15.91,93.0
15.92,89.0
15.93,80.0
15.94,90.0
15.95,84.0
15.96,80.0
15.97,85.0
15.98,88.0
15.99,78.0
16.0,73.0
16.01,69.0
16.02,78.0
16.03,72.0
16.04,73.0
16.05,69.0
16.06,87.0
16.07,72.0
16.08,81.0
16.09,95.0
16.1,81.0
16.11,74.0
16.12,85.0
16.13,71.0
16.14,77.0
16.15,71.0
16.16,72.0
16.17,96.0
16.18,70.0
16.19,94.0
16.2,89.0
16.21,77.0
16.22,82.0
16.23,78.0
16.24,69.0
16.25,82.0
16.26,73.0
16.27,68.0
16.28,77.0
16.29,81.0
16.3,84.0
16.31,84.0
16.32,69.0
16.33,99.0
16.34,88.0
16.35,82.0
16.36,74.0
16.37,73.0
16.38,88.0
16.39,90.0
16.4,72.0
16.41,78.0
16.42,72.0
16.43,75.0
16.44,92.0
16.45,80.0
16.46,74.0
16.47,82.0
16.48,72.0
16.49,80.0
16.5,77.0
16.51,91.0
16.52,72.0
16.53,87.0
16.54,74.0
16.55,84.0
16.56,79.0
16.57,91.0
16.58,82.0
16.59,79.0
16.6,89.0
16.61,86.0
16.62,78.0
16.63,83.0
16.64,69.0
16.65,68.0
16.66,82.0
16.67,82.0
16.68,72.0
16.69,70.0
16.7,86.0
16.71,83.0
16.72,84.0
16.73,83.0
16.74,75.0
16.75,75.0
16.76,66.0
16.77,65.0
16.78,74.0
16.79,75.0
16.8,67.0
16.81,68.0
16.82,94.0
16.83,81.0
16.84,64.0
16.85,85.0
16.86,89.0
16.87,67.0
16.88,81.0
16.89,84.0
16.9,68.0
16.91,78.0
16.92,80.0
16.93,84.0
16.94,70.0
16.95,75.0
16.96,77.0
16.97,83.0
16.98,82.0
16.99,83.0
17.0,85.0
17.01,84.0
17.02,89.0
17.03,92.0
17.04,63.0
17.05,80.0
17.06,83.0
17.07,73.0
17.08,69.0
17.09,65.0
17.1,71.0
17.11,90.0
17.12,86.0
17.13,65.0
17.14,73.0
17.15,76.0
17.16,93.0
17.17,85.0
17.18,60.0
17.19,88.0
17.2,78.0
17.21,94.0
17.22,72.0
17.23,67.0
17.24,108.0
17.25,83.0
17.26,84.0
17.27,86.0
17.28,64.0
17.29,75.0
17.3,79.0
17.31,77.0
17.32,73.0
17.33,79.0
17.34,69.0
17.35,80.0
17.36,75.0
17.37,75.0
17.38,86.0
17.39,82.0
17.4,67.0
17.41,88.0
17.42,79.0
17.43,67.0
17.44,71.0
17.45,83.0
17.46,73.0
17.47,86.0
17.48,86.0
17.49,76.0
17.5,69.0
17.51,71.0
17.52,82.0
17.53,88.0
17.54,84.0
17.55,69.0
17.56,76.0
17.57,84.0
17.58,87.0
17.59,86.0
17.6,85.0
17.61,74.0
17.62,73.0
17.63,81.0
17.64,82.0
17.65,71.0
17.66,72.0
17.67,82.0
17.68,93.0
17.69,87.0
17.7,79.0
17.71,74.0
17.72,81.0
17.73,102.0
17.74,65.0
17.75,69.0
17.76,101.0
17.77,103.0
17.78,80.0
17.79,69.0
17.8,86.0
17.81,78.0
17.82,84.0
17.83,65.0
17.84,89.0
17.85,62.0
17.86,66.0
17.87,72.0
17.88,84.0
17.89,71.0
17.9,80.0
17.91,82.0
17.92,82.0
17.93,82.0
17.94,68.0
17.95,88.0
17.96,70.0
17.97,74.0
17.98,70.0
17.99,89.0
18.0,86.0
18.01,84.0
18.02,100.0
18.03,63.0
18.04,85.0
18.05,71.0
18.06,83.0
18.07,67.0
18.08,73.0
18.09,79.0
18.1,89.0
18.11,54.0
18.12,71.0
18.13,72.0
18.14,66.0
18.15,93.0
18.16,76.0
18.17,67.0
18.18,78.0
18.19,72.0
18.2,72.0
18.21,83.0
18.22,91.0
18.23,77.0
18.24,88.0
18.25,85.0
18.26,88.0
18.27,84.0
18.28,70.0
18.29,82.0
18.3,77.0
18.31,78.0
18.32,66.0
18.33,71.0
18.34,86.0
18.35,80.0
18.36,68.0
18.37,76.0
18.38,61.0
18.39,76.0
18.4,82.0
18.41,79.0
18.42,72.0
18.43,75.0
18.44,71.0
18.45,81.0
18.46,81.0
18.47,84.0
18.48,69.0
18.49,74.0
18.5,97.0
18.51,86.0
18.52,89.0
18.53,85.0
18.54,76.0
18.55,79.0
18.56,70.0
18.57,76.0
18.58,74.0
18.59,70.0
18.6,79.0
18.61,79.0
18.62,69.0
18.63,76.0
18.64,87.0
18.65,87.0
18.66,91.0
18.67,86.0
18.68,79.0
18.69,76.0
18.7,74.0
18.71,74.0
18.72,76.0
18.73,83.0
18.74,86.0
18.75,84.0
18.76,73.0
18.77,76.0
18.78,85.0
18.79,72.0
18.8,76.0
18.81,77.0
18.82,67.0
18.83,73.0
18.84,72.0
18.85,71.0
18.86,80.0
18.87,73.0
18.88,72.0
18.89,87.0
18.9,78.0
18.91,83.0
18.92,81.0
18.93,98.0
18.94,87.0
18.95,83.0
18.96,89.0
18.97,95.0
18.98,73.0
18.99,82.0
19.0,87.0
19.01,86.0
19.02,72.0
19.03,90.0
19.04,78.0
19.05,73.0
19.06,86.0
19.07,81.0
19.08,76.0
19.09,78.0
19.1,67.0
19.11,68.0
19.12,74.0
19.13,70.0
19.14,88.0
19.15,81.0
19.16,81.0
19.17,78.0
19.18,77.0
19.19,75.0
19.2,69.0
19.21,70.0
19.22,75.0
19.23,88.0
19.24,66.0
19.25,86.0
19.26,83.0
19.27,78.0
19.28,66.0
19.29,83.0
19.3,66.0
19.31,83.0
19.32,64.0
19.33,75.0
19.34,64.0
19.35,72.0
19.36,66.0
19.37,70.0
19.38,67.0
19.39,81.0
19.4,88.0
19.41,91.0
19.42,71.0
19.43,76.0
19.44,68.0
19.45,93.0
19.46,79.0
19.47,82.0
19.48,91.0
19.49,79.0
19.5,87.0
19.51,88.0
19.52,80.0
19.53,85.0
19.54,74.0
19.55,69.0
19.56,79.0
19.57,57.0
19.58,70.0
19.59,71.0
19.6,75.0
19.61,86.0
19.62,81.0
19.63,72.0
19.64,81.0
19.65,89.0
19.66,75.0
19.67,76.0
19.68,82.0
19.69,79.0
19.7,90.0
19.71,76.0
19.72,75.0
19.73,82.0
19.74,88.0
19.75,89.0
19.76,74.0
19.77,91.0
19.78,81.0
19.79,77.0
19.8,82.0
19.81,86.0
19.82,82.0
19.83,74.0
19.84,82.0
19.85,81.0
19.86,86.0
19.87,88.0
19.88,75.0
19.89,88.0
19.9,70.0
19.91,71.0
19.92,85.0
19.93,86.0
19.94,99.0
19.95,79.0
19.96,81.0
19.97,64.0
19.98,64.0
19.99,82.0
20.0,78.0
20.01,83.0
20.02,78.0
20.03,75.0
20.04,89.0
20.05,69.0
20.06,71.0
20.07,69.0
20.08,97.0
20.09,79.0
20.1,84.0
20.11,98.0
20.12,74.0
20.13,65.0
20.14,80.0
20.15,80.0
20.16,72.0
20.17,81.0
20.18,79.0
20.19,82.0
20.2,82.0
20.21,87.0
20.22,80.0
20.23,85.0
20.24,67.0
20.25,72.0
20.26,61.0
20.27,72.0
20.28,88.0
20.29,82.0
20.3,82.0
20.31,60.0
20.32,67.0
20.33,75.0
20.34,93.0
20.35,63.0
20.36,75.0
20.37,85.0
20.38,84.0
20.39,66.0
20.4,77.0
20.41,62.0
20.42,92.0
20.43,83.0
20.44,78.0
20.45,59.0
20.46,75.0
20.47,84.0
20.48,69.0
20.49,71.0
20.5,72.0
20.51,79.0
20.52,76.0
20.53,98.0
20.54,85.0
20.55,86.0
20.56,97.0
20.57,71.0
20.58,73.0
20.59,73.0
20.6,84.0
20.61,79.0
20.62,75.0
20.63,83.0
20.64,74.0
20.65,93.0
20.66,60.0
20.67,79.0
20.68,64.0
20.69,67.0
20.7,78.0
20.71,84.0
20.72,68.0
20.73,82.0
20.74,86.0
20.75,70.0
20.76,78.0
20.77,70.0
20.78,84.0
20.79,88.0
20.8,70.0
20.81,85.0
20.82,88.0
20.83,79.0
20.84,91.0
20.85,74.0
20.86,76.0
20.87,79.0
20.88,92.0
20.89,71.0
20.9,77.0
20.91,86.0
20.92,97.0
20.93,67.0
20.94,70.0
20.95,89.0
20.96,81.0
20.97,77.0
20.98,105.0
20.99,76.0
21.0,99.0
21.01,75.0
21.02,66.0
21.03,71.0
21.04,71.0
21.05,79.0
21.06,75.0
21.07,87.0
21.08,79.0
21.09,77.0
21.1,82.0
21.11,81.0
21.12,68.0
21.13,75.0
21.14,79.0
21.15,61.0
21.16,69.0
21.17,100.0
21.18,83.0
21.19,62.0
21.2,77.0
21.21,85.0
21.22,71.0
21.23,83.0
21.24,80.0
21.25,79.0
21.26,77.0
21.27,71.0
21.28,78.0
21.29,75.0
21.3,81.0
21.31,74.0
21.32,78.0
21.33,81.0
21.34,84.0
21.35,77.0
21.36,65.0
21.37,79.0
21.38,60.0
21.39,86.0
21.4,76.0
21.41,74.0
21.42,64.0
21.43,74.0
21.44,71.0
21.45,74.0
21.46,69.0
21.47,83.0
21.48,73.0
21.49,76.0
21.5,81.0
21.51,73.0
21.52,97.0
21.53,75.0
21.54,79.0
21.55,93.0
21.56,83.0
21.57,80.0
21.58,77.0
21.59,76.0
21.6,95.0
21.61,77.0
21.62,60.0
21.63,87.0
21.64,82.0
21.65,70.0
21.66,76.0
21.67,90.0
21.68,92.0
21.69,87.0
21.7,77.0
21.71,58.0
21.72,85.0
21.73,93.0
21.74,97.0
21.75,91.0
21.76,83.0
21.77,71.0
21.78,86.0
21.79,71.0
21.8,91.0
21.81,86.0
21.82,75.0
21.83,65.0
21.84,90.0
21.85,96.0
21.86,86.0
21.87,89.0
21.88,69.0
21.89,91.0
21.9,84.0
21.91,83.0
21.92,82.0
21.93,92.0
21.94,80.0
21.95,96.0
21.96,83.0
21.97,74.0
21.98,79.0
21.99,82.0
22.0,84.0
22.01,74.0
22.02,69.0
22.03,83.0
22.04,70.0
22.05,80.0
22.06,88.0
22.07,85.0
22.08,73.0
22.09,93.0
22.1,89.0
22.11,84.0
22.12,80.0
22.13,108.0
22.14,85.0
22.15,72.0
22.16,75.0
22.17,74.0
22.18,82.0
22.19,84.0
22.2,81.0
22.21,87.0
22.22,73.0
22.23,72.0
22.24,80.0
22.25,80.0
22.26,87.0
22.27,76.0
22.28,80.0
22.29,95.0
22.3,69.0
22.31,85.0
22.32,82.0
22.33,75.0
22.34,78.0
22.35,70.0
22.36,69.0
22.37,95.0
22.38,85.0
22.39,98.0
22.4,73.0
22.41,72.0
22.42,63.0
22.43,78.0
22.44,88.0
22.45,75.0
22.46,75.0
22.47,75.0
22.48,85.0
22.49,80.0
22.5,73.0
22.51,81.0
22.52,70.0
22.53,77.0
22.54,92.0
22.55,82.0
22.56,57.0
22.57,84.0
22.58,75.0
22.59,89.0
22.6,87.0
22.61,75.0
22.62,78.0
22.63,84.0
22.64,93.0
22.65,75.0
22.66,70.0
22.67,78.0
22.68,74.0
22.69,65.0
22.7,72.0
22.71,77.0
22.72,81.0
22.73,64.0
22.74,63.0
22.75,75.0
22.76,85.0
22.77,83.0
22.78,82.0
22.79,62.0
22.8,76.0
22.81,72.0
22.82,77.0
22.83,66.0
22.84,93.0
22.85,81.0
22.86,77.0
22.87,78.0
22.88,88.0
22.89,80.0
22.9,75.0
22.91,85.0
22.92,93.0
22.93,73.0
22.94,95.0
22.95,80.0
22.96,78.0
22.97,98.0
22.98,82.0
22.99,77.0
23.0,81.0
23.01,83.0
23.02,84.0
23.03,73.0
23.04,72.0
23.05,81.0
23.06,74.0
23.07,79.0
23.08,67.0
23.09,85.0
23.1,74.0
23.11,92.0
23.12,81.0
23.13,76.0
23.14,89.0
23.15,86.0
23.16,83.0
23.17,88.0
23.18,97.0
23.19,61.0
23.2,68.0
23.21,64.0
23.22,93.0
23.23,88.0
23.24,73.0
23.25,90.0
23.26,73.0
23.27,79.0
23.28,78.0
23.29,79.0
23.3,84.0
23.31,58.0
23.32,76.0
23.33,86.0
23.34,89.0
23.35,80.0
23.36,67.0
23.37,82.0
23.38,80.0
23.39,76.0
23.4,62.0
23.41,69.0
23.42,81.0
23.43,74.0
23.44,86.0
23.45,75.0
23.46,72.0
23.47,75.0
23.48,73.0
23.49,87.0
23.5,85.0
23.51,73.0
23.52,85.0
23.53,73.0
23.54,93.0
23.55,91.0
23.56,87.0
23.57,77.0
23.58,75.0
23.59,71.0
23.6,84.0
23.61,58.0
23.62,84.0
23.63,97.0
23.64,94.0
23.65,72.0
23.66,67.0
23.67,88.0
23.68,79.0
23.69,81.0
23.7,83.0
23.71,78.0
23.72,91.0
23.73,84.0
23.74,75.0
23.75,86.0
23.76,85.0
23.77,68.0
23.78,90.0
23.79,74.0
23.8,92.0
23.81,71.0
23.82,78.0
23.83,86.0
23.84,90.0
23.85,63.0
23.86,92.0
23.87,71.0
23.88,69.0
23.89,79.0
23.9,85.0
23.91,87.0
23.92,82.0
23.93,79.0
23.94,75.0
23.95,77.0
23.96,79.0
23.97,91.0
23.98,85.0
23.99,77.0
24.0,89.0
24.01,71.0
24.02,71.0
24.03,80.0
24.04,79.0
24.05,67.0
24.06,73.0
24.07,80.0
24.08,89.0
24.09,88.0
24.1,83.0
24.11,105.0
24.12,68.0
24.13,82.0
24.14,84.0
24.15,77.0
24.16,82.0
24.17,68.0
24.18,84.0
24.19,75.0
24.2,84.0
24.21,91.0
24.22,91.0
24.23,102.0
24.24,62.0
24.25,70.0
24.26,84.0
24.27,79.0
24.28,79.0
24.29,75.0
24.3,54.0
24.31,80.0
24.32,90.0
24.33,83.0
24.34,75.0
24.35,66.0
24.36,78.0
24.37,75.0
24.38,77.0
24.39,78.0
24.4,76.0
24.41,80.0
24.42,77.0
24.43,81.0
24.44,73.0
24.45,75.0
24.46,91.0
24.47,77.0
24.48,68.0
24.49,85.0
24.5,95.0
24.51,76.0
24.52,77.0
24.53,87.0
24.54,72.0
24.55,65.0
24.56,79.0
24.57,96.0
24.58,69.0
24.59,89.0
24.6,85.0
24.61,89.0
24.62,76.0
24.63,85.0
24.64,94.0
24.65,81.0
24.66,76.0
24.67,82.0
24.68,70.0
24.69,73.0
24.7,94.0
24.71,62.0
24.72,75.0
24.73,86.0
24.74,68.0
24.75,87.0
24.76,85.0
24.77,74.0
24.78,76.0
24.79,79.0
24.8,74.0
24.81,83.0
24.82,84.0
24.83,95.0
24.84,76.0
24.85,73.0
24.86,71.0
24.87,83.0
24.88,89.0
24.89,74.0
24.9,77.0
24.91,84.0
24.92,75.0
24.93,90.0
24.94,82.0
24.95,79.0
24.96,69.0
24.97,73.0
24.98,90.0
24.99,84.0
25.0,75.0
25.01,83.0
25.02,87.0
25.03,61.0
25.04,96.0
25.05,74.0
25.06,74.0
25.07,79.0
25.08,89.0
25.09,68.0
25.1,77.0
25.11,97.0
25.12,78.0
25.13,94.0
25.14,71.0
25.15,91.0
25.16,85.0
25.17,80.0
25.18,78.0
25.19,82.0
25.2,91.0
25.21,84.0
25.22,67.0
25.23,88.0
25.24,74.0
25.25,73.0
25.26,75.0
25.27,80.0
25.28,85.0
25.29,94.0
25.3,80.0
25.31,74.0
25.32,56.0
25.33,79.0
25.34,76.0
25.35,81.0
25.36,77.0
25.37,74.0
25.38,80.0
25.39,65.0
25.4,71.0
25.41,70.0
25.42,76.0
25.43,79.0
25.44,76.0
25.45,88.0
25.46,68.0
25.47,83.0
25.48,53.0
25.49,83.0
25.5,72.0
25.51,82.0
25.52,78.0
25.53,95.0
25.54,67.0
25.55,76.0
25.56,88.0
25.57,91.0
25.58,87.0
25.59,88.0
25.6,78.0
25.61,80.0
25.62,99.0
25.63,88.0
25.64,78.0
25.65,75.0
25.66,79.0
25.67,78.0
25.68,86.0
25.69,78.0
25.7,74.0
25.71,86.0
25.72,81.0
25.73,84.0
25.74,72.0
25.75,65.0
25.76,69.0
25.77,75.0
25.78,73.0
25.79,77.0
25.8,93.0
25.81,78.0
25.82,84.0
25.83,61.0
25.84,81.0
25.85,84.0
25.86,84.0
25.87,75.0
25.88,83.0
25.89,76.0
25.9,75.0
25.91,75.0
25.92,92.0
25.93,71.0
25.94,92.0
25.95,76.0
25.96,85.0
25.97,70.0
25.98,91.0
25.99,74.0
26.0,88.0
26.01,75.0
26.02,87.0
26.03,84.0
26.04,82.0
26.05,85.0
26.06,71.0
26.07,61.0
26.08,69.0
26.09,69.0
26.1,72.0
26.11,93.0
26.12,81.0
26.13,91.0
26.14,100.0
26.15,85.0
26.16,88.0
26.17,69.0
26.18,69.0
26.19,78.0
26.2,70.0
26.21,91.0
26.22,71.0
26.23,74.0
26.24,82.0
26.25,79.0
26.26,71.0
26.27,87.0
26.28,79.0
26.29,64.0
26.3,92.0
26.31,75.0
26.32,76.0
26.33,76.0
26.34,75.0
26.35,85.0
26.36,66.0
26.37,90.0
26.38,65.0
26.39,85.0
26.4,81.0
26.41,80.0
26.42,85.0
26.43,80.0
26.44,93.0
26.45,75.0
26.46,87.0
26.47,73.0
26.48,84.0
26.49,82.0
26.5,72.0
26.51,82.0
26.52,91.0
26.53,76.0
26.54,81.0
26.55,74.0
26.56,95.0
26.57,82.0
26.58,73.0
26.59,84.0
26.6,80.0
26.61,88.0
26.62,80.0
26.63,86.0
26.64,78.0
26.65,105.0
26.66,79.0
26.67,85.0
26.68,92.0
26.69,80.0
26.7,73.0
26.71,86.0
26.72,76.0
26.73,82.0
26.74,90.0
26.75,84.0
26.76,78.0
26.77,66.0
26.78,78.0
26.79,88.0
26.8,87.0
26.81,90.0
26.82,63.0
26.83,84.0
26.84,100.0
26.85,91.0
26.86,74.0
26.87,82.0
26.88,76.0
26.89,79.0
26.9,85.0
26.91,77.0
26.92,73.0
26.93,85.0
26.94,82.0
26.95,74.0
26.96,87.0
26.97,85.0
26.98,80.0
26.99,75.0
27.0,73.0
27.01,92.0
27.02,66.0
27.03,80.0
27.04,68.0
27.05,70.0
27.06,89.0
27.07,69.0
27.08,74.0
27.09,97.0
27.1,85.0
27.11,78.0
27.12,99.0
27.13,87.0
27.14,84.0
27.15,87.0
27.16,64.0
27.17,74.0
27.18,94.0
27.19,95.0
27.2,72.0
27.21,66.0
27.22,77.0
27.23,76.0
27.24,71.0
27.25,71.0
27.26,80.0
27.27,75.0
27.28,99.0
27.29,69.0
27.3,84.0
27.31,92.0
27.32,53.0
27.33,65.0
27.34,74.0
27.35,85.0
27.36,72.0
27.37,74.0
27.38,97.0
27.39,73.0
27.4,70.0
27.41,85.0
27.42,75.0
27.43,86.0
27.44,87.0
27.45,85.0
27.46,81.0
27.47,82.0
27.48,73.0
27.49,72.0
27.5,70.0
27.51,62.0
27.52,65.0
27.53,76.0
27.54,73.0
27.55,75.0
27.56,85.0
27.57,89.0
27.58,84.0
27.59,76.0
27.6,87.0
27.61,67.0
27.62,107.0
27.63,80.0
27.64,84.0
27.65,77.0
27.66,72.0
27.67,80.0
27.68,78.0
27.69,82.0
27.7,86.0
27.71,53.0
27.72,73.0
27.73,84.0
27.74,83.0
27.75,71.0
27.76,77.0
27.77,85.0
27.78,83.0
27.79,88.0
27.8,82.0
27.81,92.0
27.82,80.0
27.83,85.0
27.84,71.0
27.85,83.0
27.86,82.0
27.87,77.0
27.88,81.0
27.89,76.0
27.9,86.0
27.91,76.0
27.92,82.0
27.93,78.0
27.94,96.0
27.95,85.0
27.96,89.0
27.97,69.0
27.98,79.0
27.99,74.0
28.0,95.0
28.01,83.0
28.02,67.0
28.03,86.0
28.04,78.0
28.05,79.0
28.06,88.0
28.07,80.0
28.08,82.0
28.09,96.0
28.1,61.0
28.11,84.0
28.12,76.0
28.13,73.0
28.14,75.0
28.15,73.0
28.16,75.0
28.17,86.0
28.18,80.0
28.19,69.0
28.2,84.0
28.21,69.0
28.22,65.0
28.23,74.0
28.24,68.0
28.25,75.0
28.26,69.0
28.27,64.0
28.28,79.0
28.29,93.0
28.3,69.0
28.31,92.0
28.32,76.0
28.33,78.0
28.34,74.0
28.35,81.0
28.36,79.0
28.37,93.0
28.38,81.0
28.39,78.0
28.4,80.0
28.41,87.0
28.42,71.0
28.43,71.0
28.44,91.0
28.45,91.0
28.46,77.0
28.47,91.0
28.48,61.0
28.49,85.0
28.5,82.0
28.51,72.0
28.52,82.0
28.53,75.0
28.54,91.0
28.55,76.0
28.56,89.0
28.57,73.0
28.58,91.0
28.59,88.0
28.6,83.0
28.61,75.0
28.62,88.0
28.63,64.0
28.64,93.0
28.65,93.0
28.66,77.0
28.67,79.0
28.68,71.0
28.69,85.0
28.7,87.0
28.71,81.0
28.72,98.0
28.73,84.0
28.74,80.0
28.75,76.0
28.76,86.0
28.77,80.0
28.78,98.0
28.79,94.0
28.8,85.0
28.81,81.0
28.82,71.0
28.83,83.0
28.84,74.0
28.85,73.0
28.86,86.0
28.87,92.0
28.88,94.0
28.89,83.0
28.9,88.0
28.91,72.0
28.92,103.0
28.93,71.0
28.94,79.0
28.95,80.0
28.96,83.0
28.97,88.0
28.98,93.0
28.99,75.0
29.0,88.0
29.01,89.0
29.02,68.0
29.03,85.0
29.04,63.0
29.05,73.0
29.06,83.0
29.07,82.0
29.08,110.0
29.09,88.0
29.1,97.0
29.11,102.0
29.12,76.0
29.13,72.0
29.14,102.0
29.15,75.0
29.16,76.0
29.17,78.0
29.18,70.0
29.19,71.0
29.2,73.0
29.21,78.0
29.22,71.0
29.23,68.0
29.24,73.0
29.25,76.0
29.26,66.0
29.27,82.0
29.28,67.0
29.29,65.0
29.3,71.0
29.31,83.0
29.32,77.0
29.33,84.0
29.34,77.0
29.35,88.0
29.36,78.0
29.37,75.0
29.38,86.0
29.39,62.0
29.4,70.0
29.41,84.0
29.42,78.0
29.43,84.0
29.44,77.0
29.45,85.0
29.46,70.0
29.47,90.0
29.48,72.0
29.49,106.0
29.5,90.0
29.51,82.0
29.52,81.0
29.53,77.0
29.54,84.0
29.55,83.0
29.56,85.0
29.57,81.0
29.58,78.0
29.59,93.0
29.6,81.0
29.61,74.0
29.62,89.0
29.63,85.0
29.64,81.0
29.65,76.0
29.66,89.0
29.67,72.0
29.68,71.0
29.69,70.0
29.7,81.0
29.71,73.0
29.72,84.0
29.73,87.0
29.74,95.0
29.75,79.0
29.76,66.0
29.77,94.0
29.78,91.0
29.79,83.0
29.8,85.0
29.81,81.0
29.82,62.0
29.83,78.0
29.84,80.0
29.85,69.0
29.86,83.0
29.87,77.0
29.88,65.0
29.89,82.0
29.9,90.0
29.91,69.0
29.92,111.0
29.93,64.0
29.94,87.0
29.95,78.0
29.96,79.0
29.97,92.0
29.98,87.0
29.99,82.0
30.0,74.0
30.01,72.0
30.02,77.0
30.03,63.0
30.04,71.0
30.05,79.0
30.06,82.0
30.07,82.0
30.08,85.0
30.09,86.0
30.1,83.0
30.11,99.0
30.12,96.0
30.13,83.0
30.14,76.0
30.15,69.0
30.16,90.0
30.17,86.0
30.18,91.0
30.19,85.0
30.2,79.0
30.21,75.0
30.22,80.0
30.23,79.0
30.24,67.0
30.25,86.0
30.26,79.0
30.27,93.0
30.28,91.0
30.29,89.0
30.3,62.0
30.31,74.0
30.32,79.0
30.33,113.0
30.34,82.0
30.35,75.0
30.36,71.0
30.37,92.0
30.38,86.0
30.39,93.0
30.4,93.0
30.41,71.0
30.42,72.0
30.43,73.0
30.44,86.0
30.45,89.0
30.46,74.0
30.47,76.0
30.48,74.0
30.49,93.0
30.5,82.0
30.51,87.0
30.52,76.0
30.53,85.0
30.54,81.0
30.55,59.0
30.56,80.0
30.57,78.0
30.58,79.0
30.59,84.0
30.6,91.0
30.61,92.0
30.62,94.0
30.63,95.0
30.64,80.0
30.65,77.0
30.66,97.0
30.67,86.0
30.68,67.0
30.69,87.0
30.7,85.0
30.71,93.0
30.72,87.0
30.73,106.0
30.74,78.0
30.75,85.0
30.76,81.0
30.77,93.0
30.78,91.0
30.79,97.0
30.8,99.0
30.81,86.0
30.82,75.0
30.83,100.0
30.84,69.0
30.85,83.0
30.86,91.0
30.87,91.0
30.88,90.0
30.89,94.0
30.9,83.0
30.91,94.0
30.92,90.0
30.93,74.0
30.94,95.0
30.95,97.0
30.96,81.0
30.97,98.0
30.98,75.0
30.99,83.0
31.0,92.0
31.01,86.0
31.02,85.0
31.03,89.0
31.04,136.0
31.05,123.0
31.06,172.0
31.07,159.0
31.08,223.0
31.09,288.0
31.1,301.0
31.11,299.0
31.12,202.0
31.13,146.0
31.14,160.0
31.15,143.0
31.16,173.0
31.17,197.0
31.18,200.0
31.19,179.0
31.2,143.0
31.21,102.0
31.22,111.0
31.23,104.0
31.24,113.0
31.25,92.0
31.26,96.0
31.27,109.0
31.28,105.0
31.29,91.0
31.3,86.0
31.31,71.0
31.32,92.0
31.33,101.0
31.34,87.0
31.35,77.0
31.36,87.0
31.37,96.0
31.38,85.0
31.39,87.0
31.4,95.0
31.41,69.0
31.42,97.0
31.43,93.0
31.44,89.0
31.45,96.0
31.46,84.0
31.47,80.0
31.48,91.0
31.49,87.0
31.5,100.0
31.51,95.0
31.52,72.0
31.53,76.0
31.54,85.0
31.55,77.0
31.56,81.0
31.57,79.0
31.58,85.0
31.59,80.0
31.6,92.0
31.61,79.0
31.62,81.0
31.63,87.0
31.64,79.0
31.65,90.0
31.66,86.0
31.67,69.0
31.68,84.0
31.69,77.0
31.7,91.0
31.71,103.0
31.72,102.0
31.73,76.0
31.74,96.0
31.75,75.0
31.76,94.0
31.77,89.0
31.78,89.0
31.79,78.0
31.8,107.0
31.81,93.0
31.82,104.0
31.83,91.0
31.84,80.0
31.85,91.0
31.86,81.0
31.87,94.0
31.88,79.0
31.89,81.0
31.9,84.0
31.91,78.0
31.92,72.0
31.93,91.0
31.94,68.0
31.95,80.0
31.96,83.0
31.97,93.0
31.98,89.0
31.99,72.0
32.0,88.0
32.01,73.0
32.02,79.0
32.03,74.0
32.04,90.0
32.05,91.0
32.06,87.0
32.07,83.0
32.08,95.0
32.09,95.0
32.1,96.0
32.11,83.0
32.12,77.0
32.13,81.0
32.14,73.0
32.15,67.0
32.16,84.0
32.17,67.0
32.18,82.0
32.19,88.0
32.2,87.0
32.21,85.0
32.22,85.0
32.23,72.0
32.24,77.0
32.25,65.0
32.26,77.0
32.27,83.0
32.28,74.0
32.29,61.0
32.3,79.0
32.31,81.0
32.32,76.0
32.33,84.0
32.34,77.0
32.35,81.0
32.36,101.0
32.37,66.0
32.38,90.0
32.39,88.0
32.4,80.0
32.41,80.0
32.42,80.0
32.43,75.0
32.44,80.0
32.45,69.0
32.46,88.0
32.47,81.0
32.48,72.0
32.49,82.0
32.5,91.0
32.51,94.0
32.52,96.0
32.53,89.0
32.54,73.0
32.55,89.0
32.56,64.0
32.57,79.0
32.58,83.0
32.59,61.0
32.6,88.0
32.61,99.0
32.62,92.0
32.63,89.0
32.64,75.0
32.65,77.0
32.66,72.0
32.67,73.0
32.68,76.0
32.69,89.0
32.7,79.0
32.71,92.0
32.72,85.0
32.73,69.0
32.74,75.0
32.75,75.0
32.76,74.0
32.77,97.0
32.78,83.0
32.79,85.0
32.8,96.0
32.81,76.0
32.82,82.0
32.83,82.0
32.84,78.0
32.85,106.0
32.86,71.0
32.87,96.0
32.88,80.0
32.89,85.0
32.9,83.0
32.91,71.0
32.92,90.0
32.93,75.0
32.94,75.0
32.95,82.0
32.96,50.0
32.97,80.0
32.98,96.0
32.99,88.0
33.0,77.0
33.01,84.0
33.02,88.0
33.03,87.0
33.04,95.0
33.05,90.0
33.06,90.0
33.07,70.0
33.08,81.0
33.09,73.0
33.1,98.0
33.11,88.0
33.12,64.0
33.13,75.0
33.14,88.0
33.15,96.0
33.16,84.0
33.17,78.0
33.18,71.0
33.19,93.0
33.2,72.0
33.21,83.0
33.22,84.0
33.23,83.0
33.24,86.0
33.25,84.0
33.26,82.0
33.27,85.0
33.28,77.0
33.29,76.0
33.3,91.0
33.31,90.0
33.32,83.0
33.33,80.0
33.34,84.0
33.35,63.0
33.36,90.0
33.37,89.0
33.38,69.0
33.39,67.0
33.4,91.0
33.41,84.0
33.42,80.0
33.43,88.0
33.44,81.0
33.45,78.0
33.46,95.0
33.47,91.0
33.48,78.0
33.49,96.0
33.5,86.0
33.51,71.0
33.52,80.0
33.53,87.0
33.54,85.0
33.55,96.0
33.56,92.0
33.57,72.0
33.58,95.0
33.59,77.0
33.6,78.0
33.61,95.0
33.62,78.0
33.63,92.0
33.64,81.0
33.65,79.0
33.66,66.0
33.67,97.0
33.68,88.0
33.69,78.0
33.7,75.0
33.71,77.0
33.72,79.0
33.73,68.0
33.74,89.0
33.75,76.0
33.76,76.0
33.77,79.0
33.78,68.0
33.79,79.0
33.8,88.0
33.81,83.0
33.82,106.0
33.83,80.0
33.84,67.0
33.85,71.0
33.86,100.0
33.87,81.0
33.88,97.0
33.89,87.0
33.9,84.0
33.91,76.0
33.92,83.0
33.93,78.0
33.94,74.0
33.95,89.0
33.96,107.0
33.97,68.0
33.98,98.0
33.99,80.0
34.0,79.0
34.01,95.0
34.02,97.0
34.03,88.0
34.04,71.0
34.05,92.0
34.06,75.0
34.07,85.0
34.08,80.0
34.09,84.0
34.1,97.0
34.11,101.0
34.12,102.0
34.13,69.0
34.14,80.0
34.15,86.0
34.16,90.0
34.17,87.0
34.18,85.0
34.19,84.0
34.2,90.0
34.21,90.0
34.22,73.0
34.23,84.0
34.24,98.0
34.25,80.0
34.26,87.0
34.27,72.0
34.28,84.0
34.29,97.0
34.3,81.0
34.31,88.0
34.32,84.0
34.33,83.0
34.34,77.0
34.35,88.0
34.36,95.0
34.37,81.0
34.38,98.0
34.39,80.0
34.4,76.0
34.41,79.0
34.42,71.0
34.43,90.0
34.44,76.0
34.45,87.0
34.46,79.0
34.47,80.0
34.48,66.0
34.49,84.0
34.5,94.0
34.51,76.0
34.52,73.0
34.53,88.0
34.54,97.0
34.55,78.0
34.56,85.0
34.57,91.0
34.58,73.0
34.59,91.0
34.6,75.0
34.61,98.0
34.62,108.0
34.63,108.0
34.64,100.0
34.65,91.0
34.66,99.0
34.67,99.0
34.68,90.0
34.69,81.0
34.7,86.0
34.71,76.0
34.72,86.0
34.73,102.0
34.74,78.0
34.75,93.0
34.76,97.0
34.77,105.0
34.78,114.0
34.79,118.0
34.8,119.0
34.81,156.0
34.82,174.0
34.83,203.0
34.84,262.0
34.85,386.0
34.86,497.0
34.87,600.0
34.88,663.0
34.89,480.0
34.9,347.0
34.91,239.0
34.92,228.0
34.93,254.0
34.94,243.0
34.95,329.0
34.96,383.0
34.97,358.0
34.98,275.0
34.99,212.0
35.0,157.0
35.01,129.0
35.02,124.0
35.03,137.0
35.04,105.0
35.05,104.0
35.06,92.0
35.07,95.0
35.08,102.0
35.09,99.0
35.1,89.0
35.11,111.0
35.12,100.0
35.13,92.0
35.14,92.0
35.15,98.0
35.16,97.0
35.17,92.0
35.18,87.0
35.19,85.0
35.2,103.0
35.21,88.0
35.22,90.0
35.23,94.0
35.24,88.0
35.25,81.0
35.26,87.0
35.27,90.0
35.28,96.0
35.29,89.0
35.3,87.0
35.31,79.0
35.32,89.0
35.33,93.0
35.34,69.0
35.35,87.0
35.36,86.0
35.37,86.0
35.38,74.0
35.39,73.0
35.4,104.0
35.41,89.0
35.42,103.0
35.43,91.0
35.44,78.0
35.45,60.0
35.46,84.0
35.47,73.0
35.48,87.0
35.49,89.0
35.5,95.0
35.51,77.0
35.52,68.0
35.53,85.0
35.54,72.0
35.55,85.0
35.56,96.0
35.57,86.0
35.58,70.0
35.59,100.0
35.6,85.0
35.61,79.0
35.62,91.0
35.63,73.0
35.64,75.0
35.65,74.0
35.66,96.0
35.67,83.0
35.68,82.0
35.69,97.0
35.7,82.0
35.71,91.0
35.72,73.0
35.73,85.0
35.74,75.0
35.75,96.0
35.76,80.0
35.77,96.0
35.78,91.0
35.79,87.0
35.8,94.0
35.81,74.0
35.82,90.0
35.83,83.0
35.84,78.0
35.85,67.0
35.86,95.0
35.87,86.0
35.88,84.0
35.89,66.0
35.9,79.0
35.91,72.0
35.92,80.0
35.93,84.0
35.94,81.0
35.95,88.0
35.96,80.0
35.97,95.0
35.98,74.0
35.99,74.0
36.0,96.0
36.01,88.0
36.02,79.0
36.03,81.0
36.04,78.0
36.05,94.0
36.06,92.0
36.07,94.0
36.08,88.0
36.09,93.0
36.1,86.0
36.11,85.0
36.12,73.0
36.13,80.0
36.14,82.0
36.15,76.0
36.16,92.0
36.17,60.0
36.18,71.0
36.19,78.0
36.2,111.0
36.21,96.0
36.22,90.0
36.23,71.0
36.24,98.0
36.25,85.0
36.26,92.0
36.27,84.0
36.28,67.0
36.29,93.0
36.3,89.0
36.31,87.0
36.32,77.0
36.33,84.0
36.34,84.0
36.35,77.0
36.36,78.0
36.37,74.0
36.38,91.0
36.39,76.0
36.4,97.0
36.41,81.0
36.42,93.0
36.43,84.0
36.44,82.0
36.45,90.0
36.46,81.0
36.47,64.0
36.48,97.0
36.49,76.0
36.5,78.0
36.51,87.0
36.52,99.0
36.53,80.0
36.54,91.0
36.55,87.0
36.56,113.0
36.57,95.0
36.58,96.0
36.59,92.0
36.6,118.0
36.61,114.0
36.62,135.0
36.63,141.0
36.64,150.0
36.65,139.0
36.66,126.0
36.67,109.0
36.68,78.0
36.69,100.0
36.7,108.0
36.71,107.0
36.72,106.0
36.73,101.0
36.74,104.0
36.75,99.0
36.76,93.0
36.77,91.0
36.78,99.0
36.79,87.0
36.8,82.0
36.81,87.0
36.82,83.0
36.83,91.0
36.84,82.0
36.85,89.0
36.86,84.0
36.87,71.0
36.88,88.0
36.89,90.0
36.9,106.0
36.91,93.0
36.92,86.0
36.93,86.0
36.94,76.0
36.95,90.0
36.96,87.0
36.97,95.0
36.98,70.0
36.99,84.0
37.0,105.0
37.01,69.0
37.02,84.0
37.03,72.0
37.04,86.0
37.05,88.0
37.06,81.0
37.07,82.0
37.08,75.0
37.09,93.0
37.1,97.0
37.11,90.0
37.12,72.0
37.13,92.0
37.14,83.0
37.15,75.0
37.16,79.0
37.17,106.0
37.18,70.0
37.19,85.0
37.2,77.0
37.21,89.0
37.22,83.0
37.23,70.0
37.24,85.0
37.25,92.0
37.26,73.0
37.27,92.0
37.28,97.0
37.29,81.0
37.3,74.0
37.31,71.0
37.32,100.0
37.33,85.0
37.34,87.0
37.35,85.0
37.36,80.0
37.37,89.0
37.38,75.0
37.39,85.0
37.4,91.0
37.41,85.0
37.42,79.0
37.43,97.0
37.44,73.0
37.45,77.0
37.46,83.0
37.47,80.0
37.48,90.0
37.49,79.0
37.5,92.0
37.51,84.0
37.52,93.0
37.53,78.0
37.54,74.0
37.55,84.0
37.56,68.0
37.57,77.0
37.58,77.0
37.59,78.0
37.6,71.0
37.61,72.0
37.62,78.0
37.63,91.0
37.64,81.0
37.65,85.0
37.66,81.0
37.67,90.0
37.68,88.0
37.69,82.0
37.7,76.0
37.71,83.0
37.72,83.0
37.73,78.0
37.74,77.0
37.75,75.0
37.76,83.0
37.77,79.0
37.78,90.0
37.79,72.0
37.8,80.0
37.81,92.0
37.82,94.0
37.83,86.0
37.84,92.0
37.85,80.0
37.86,94.0
37.87,91.0
37.88,91.0
37.89,98.0
37.9,101.0
37.91,97.0
37.92,74.0
37.93,96.0
37.94,91.0
37.95,77.0
37.96,96.0
37.97,80.0
37.98,71.0
37.99,91.0
38.0,74.0
38.01,88.0
38.02,77.0
38.03,94.0
38.04,78.0
38.05,86.0
38.06,80.0
38.07,77.0
38.08,82.0
38.09,86.0
38.1,86.0
38.11,87.0
38.12,90.0
38.13,84.0
38.14,88.0
38.15,76.0
38.16,75.0
38.17,69.0
38.18,59.0
38.19,91.0
38.2,73.0
38.21,109.0
38.22,93.0
38.23,80.0
38.24,72.0
38.25,92.0
38.26,107.0
38.27,111.0
38.28,110.0
38.29,142.0
38.3,148.0
38.31,192.0
38.32,188.0
38.33,212.0
38.34,168.0
38.35,139.0
38.36,113.0
38.37,115.0
38.38,108.0
38.39,114.0
38.4,142.0
38.41,145.0
38.42,134.0
38.43,126.0
38.44,141.0
38.45,123.0
38.46,95.0
38.47,84.0
38.48,102.0
38.49,94.0
38.5,84.0
38.51,83.0
38.52,89.0
38.53,89.0
38.54,77.0
38.55,82.0
38.56,82.0
38.57,99.0
38.58,110.0
38.59,91.0
38.6,95.0
38.61,83.0
38.62,66.0
38.63,93.0
38.64,86.0
38.65,74.0
38.66,85.0
38.67,96.0
38.68,87.0
38.69,75.0
38.7,87.0
38.71,71.0
38.72,80.0
38.73,107.0
38.74,90.0
38.75,68.0
38.76,84.0
38.77,88.0
38.78,77.0
38.79,79.0
38.8,67.0
38.81,77.0
38.82,77.0
38.83,79.0
38.84,89.0
38.85,95.0
38.86,91.0
38.87,72.0
38.88,81.0
38.89,93.0
38.9,76.0
38.91,92.0
38.92,88.0
38.93,93.0
38.94,101.0
38.95,89.0
38.96,78.0
38.97,78.0
38.98,91.0
38.99,67.0
39.0,102.0
39.01,68.0
39.02,67.0
39.03,102.0
39.04,111.0
39.05,87.0
39.06,85.0
39.07,78.0
39.08,82.0
39.09,76.0
39.1,93.0
39.11,81.0
39.12,81.0
39.13,86.0
39.14,80.0
39.15,74.0
39.16,73.0
39.17,98.0
39.18,60.0
39.19,79.0
39.2,83.0
39.21,92.0
39.22,93.0
39.23,86.0
39.24,80.0
39.25,73.0
39.26,89.0
39.27,71.0
39.28,90.0
39.29,70.0
39.3,72.0
39.31,90.0
39.32,93.0
39.33,83.0
39.34,77.0
39.35,84.0
39.36,74.0
39.37,74.0
39.38,73.0
39.39,68.0
39.4,91.0
39.41,81.0
39.42,74.0
39.43,84.0
39.44,79.0
39.45,78.0
39.46,76.0
39.47,100.0
39.48,82.0
39.49,74.0
39.5,94.0
39.51,77.0
39.52,79.0
39.53,74.0
39.54,93.0
39.55,89.0
39.56,76.0
39.57,79.0
39.58,70.0
39.59,73.0
39.6,83.0
39.61,74.0
39.62,76.0
39.63,77.0
39.64,82.0
39.65,92.0
39.66,95.0
39.67,77.0
39.68,79.0
39.69,95.0
39.7,93.0
39.71,90.0
39.72,90.0
39.73,86.0
39.74,87.0
39.75,93.0
39.76,73.0
39.77,107.0
39.78,81.0
39.79,88.0
39.8,77.0
39.81,79.0
39.82,92.0
39.83,94.0
39.84,79.0
39.85,90.0
39.86,108.0
39.87,81.0
39.88,101.0
39.89,100.0
39.9,89.0
39.91,112.0
39.92,117.0
39.93,132.0
39.94,167.0
39.95,154.0
39.96,176.0
39.97,105.0
39.98,109.0
39.99,99.0
40.0,102.0
40.01,90.0
40.02,92.0
40.03,115.0
40.04,114.0
40.05,130.0
40.06,122.0
40.07,116.0
40.08,113.0
40.09,88.0
40.1,100.0
40.11,81.0
40.12,95.0
40.13,96.0
40.14,92.0
40.15,77.0
40.16,79.0
40.17,84.0
40.18,79.0
40.19,78.0
40.2,90.0
40.21,83.0
40.22,82.0
40.23,100.0
40.24,85.0
40.25,82.0
40.26,88.0
40.27,79.0
40.28,88.0
40.29,91.0
40.3,98.0
40.31,92.0
40.32,106.0
40.33,93.0
40.34,81.0
40.35,71.0
40.36,79.0
40.37,96.0
40.38,75.0
40.39,95.0
40.4,84.0
40.41,74.0
40.42,93.0
40.43,99.0
40.44,90.0
40.45,85.0
40.46,84.0
40.47,72.0
40.48,77.0
40.49,85.0
40.5,94.0
40.51,90.0
40.52,86.0
40.53,89.0
40.54,78.0
40.55,72.0
40.56,95.0
40.57,84.0
40.58,86.0
40.59,91.0
40.6,91.0
40.61,79.0
40.62,89.0
40.63,77.0
40.64,98.0
40.65,98.0
40.66,97.0
40.67,81.0
40.68,96.0
40.69,86.0
40.7,84.0
40.71,86.0
40.72,85.0
40.73,73.0
40.74,77.0
40.75,80.0
40.76,89.0
40.77,88.0
40.78,105.0
40.79,82.0
40.8,96.0
40.81,98.0
40.82,78.0
40.83,88.0
40.84,87.0
40.85,84.0
40.86,76.0
40.87,99.0
40.88,73.0
40.89,92.0
40.9,88.0
40.91,78.0
40.92,80.0
40.93,73.0
40.94,80.0
40.95,86.0
40.96,82.0
40.97,75.0
40.98,91.0
40.99,78.0
41.0,73.0
41.01,86.0
41.02,93.0
41.03,80.0
41.04,93.0
41.05,83.0
41.06,84.0
41.07,83.0
41.08,77.0
41.09,83.0
41.1,99.0
41.11,101.0
41.12,81.0
41.13,80.0
41.14,69.0
41.15,94.0
41.16,83.0
41.17,84.0
41.18,97.0
41.19,84.0
41.2,72.0
41.21,76.0
41.22,85.0
41.23,103.0
41.24,89.0
41.25,87.0
41.26,88.0
41.27,71.0
41.28,79.0
41.29,69.0
41.3,72.0
41.31,101.0
41.32,86.0
41.33,75.0
41.34,80.0
41.35,76.0
41.36,95.0
41.37,96.0
41.38,84.0
41.39,65.0
41.4,76.0
41.41,82.0
41.42,81.0
41.43,92.0
41.44,94.0
41.45,88.0
41.46,94.0
41.47,83.0
41.48,88.0
41.49,84.0
41.5,84.0
41.51,84.0
41.52,75.0
41.53,98.0
41.54,96.0
41.55,88.0
41.56,71.0
41.57,65.0
41.58,93.0
41.59,87.0
41.6,99.0
41.61,86.0
41.62,84.0
41.63,77.0
41.64,85.0
41.65,81.0
41.66,76.0
41.67,92.0
41.68,78.0
41.69,83.0
41.7,79.0
41.71,97.0
41.72,94.0
41.73,90.0
41.74,71.0
41.75,106.0
41.76,95.0
41.77,84.0
41.78,93.0
41.79,104.0
41.8,84.0
41.81,88.0
41.82,77.0
41.83,82.0
41.84,92.0
41.85,94.0
41.86,81.0
41.87,78.0
41.88,83.0
41.89,65.0
41.9,85.0
41.91,83.0
41.92,77.0
41.93,72.0
41.94,81.0
41.95,71.0
41.96,82.0
41.97,89.0
41.98,73.0
41.99,86.0
42.0,85.0
42.01,66.0
42.02,82.0
42.03,74.0
42.04,82.0
42.05,68.0
42.06,75.0
42.07,88.0
42.08,68.0
42.09,77.0
42.1,81.0
42.11,83.0
42.12,78.0
42.13,82.0
42.14,101.0
42.15,83.0
42.16,82.0
42.17,104.0
42.18,75.0
42.19,91.0
42.2,81.0
42.21,86.0
42.22,93.0
42.23,93.0
42.24,76.0
42.25,74.0
42.26,70.0
42.27,84.0
42.28,80.0
42.29,85.0
42.3,81.0
42.31,84.0
42.32,78.0
42.33,64.0
42.34,71.0
42.35,93.0
42.36,105.0
42.37,86.0
42.38,78.0
42.39,91.0
42.4,77.0
42.41,68.0
42.42,82.0
42.43,84.0
42.44,84.0
42.45,92.0
42.46,71.0
42.47,76.0
42.48,93.0
42.49,79.0
42.5,83.0
42.51,101.0
42.52,82.0
42.53,85.0
42.54,71.0
42.55,110.0
42.56,83.0
42.57,94.0
42.58,89.0
42.59,88.0
42.6,94.0
42.61,98.0
42.62,74.0
42.63,73.0
42.64,82.0
42.65,95.0
42.66,91.0
42.67,89.0
42.68,69.0
42.69,68.0
42.7,83.0
42.71,92.0
42.72,75.0
42.73,90.0
42.74,85.0
42.75,72.0
42.76,92.0
42.77,100.0
42.78,87.0
42.79,89.0
42.8,104.0
42.81,87.0
42.82,95.0
42.83,79.0
42.84,90.0
42.85,89.0
42.86,81.0
42.87,78.0
42.88,79.0
42.89,96.0
42.9,84.0
42.91,78.0
42.92,99.0
42.93,80.0
42.94,91.0
42.95,79.0
42.96,92.0
42.97,96.0
42.98,75.0
42.99,95.0
43.0,98.0
43.01,110.0
43.02,133.0
43.03,151.0
43.04,169.0
43.05,186.0
43.06,177.0
43.07,147.0
43.08,132.0
43.09,103.0
43.1,105.0
43.11,98.0
43.12,115.0
43.13,124.0
43.14,119.0
43.15,134.0
43.16,140.0
43.17,124.0
43.18,119.0
43.19,102.0
43.2,90.0
43.21,98.0
43.22,88.0
43.23,75.0
43.24,84.0
43.25,97.0
43.26,100.0
43.27,95.0
43.28,89.0
43.29,79.0
43.3,78.0
43.31,102.0
43.32,101.0
43.33,99.0
43.34,95.0
43.35,93.0
43.36,70.0
43.37,96.0
43.38,77.0
43.39,83.0
43.4,110.0
43.41,97.0
43.42,85.0
43.43,90.0
43.44,95.0
43.45,93.0
43.46,77.0
43.47,69.0
43.48,101.0
43.49,81.0
43.5,101.0
43.51,87.0
43.52,101.0
43.53,79.0
43.54,92.0
43.55,88.0
43.56,87.0
43.57,87.0
43.58,88.0
43.59,94.0
43.6,84.0
43.61,89.0
43.62,88.0
43.63,89.0
43.64,80.0
43.65,68.0
43.66,85.0
43.67,80.0
43.68,94.0
43.69,82.0
43.7,100.0
43.71,93.0
43.72,104.0
43.73,78.0
43.74,85.0
43.75,90.0
43.76,78.0
43.77,74.0
43.78,75.0
43.79,87.0
43.8,88.0
43.81,77.0
43.82,71.0
43.83,87.0
43.84,81.0
43.85,101.0
43.86,80.0
43.87,90.0
43.88,81.0
43.89,84.0
43.9,81.0
43.91,84.0
43.92,90.0
43.93,74.0
43.94,65.0
43.95,81.0
43.96,90.0
43.97,79.0
43.98,78.0
43.99,75.0
44.0,93.0
44.01,78.0
44.02,81.0
44.03,74.0
44.04,80.0
44.05,90.0
44.06,75.0
44.07,94.0
44.08,102.0
44.09,82.0
44.1,102.0
44.11,83.0
44.12,96.0
44.13,89.0
44.14,81.0
44.15,77.0
44.16,79.0
44.17,91.0
44.18,73.0
44.19,74.0
44.2,74.0
44.21,80.0
44.22,86.0
44.23,80.0
44.24,69.0
44.25,85.0
44.26,91.0
44.27,82.0
44.28,92.0
44.29,92.0
44.3,104.0
44.31,80.0
44.32,77.0
44.33,93.0
44.34,75.0
44.35,75.0
44.36,74.0
44.37,97.0
44.38,76.0
44.39,97.0
44.4,88.0
44.41,100.0
44.42,82.0
44.43,67.0
44.44,68.0
44.45,77.0
44.46,92.0
44.47,87.0
44.48,85.0
44.49,84.0
44.5,90.0
44.51,86.0
44.52,110.0
44.53,105.0
44.54,94.0
44.55,83.0
44.56,89.0
44.57,77.0
44.58,71.0
44.59,94.0
44.6,88.0
44.61,103.0
44.62,94.0
44.63,83.0
44.64,103.0
44.65,85.0
44.66,82.0
44.67,86.0
44.68,85.0
44.69,95.0
44.7,92.0
44.71,71.0
44.72,88.0
44.73,92.0
44.74,82.0
44.75,82.0
44.76,80.0
44.77,89.0
44.78,82.0
44.79,86.0
44.8,77.0
44.81,73.0
44.82,102.0
44.83,84.0
44.84,79.0
44.85,89.0
44.86,92.0
44.87,80.0
44.88,81.0
44.89,71.0
44.9,86.0
44.91,74.0
44.92,90.0
44.93,92.0
44.94,88.0
44.95,80.0
44.96,84.0
44.97,88.0
44.98,99.0
44.99,80.0
45.0,88.0
45.01,77.0
45.02,76.0
45.03,84.0
45.04,87.0
45.05,78.0
45.06,95.0
45.07,84.0
45.08,88.0
45.09,72.0
45.1,81.0
45.11,82.0
45.12,77.0
45.13,92.0
45.14,83.0
45.15,62.0
45.16,80.0
45.17,106.0
45.18,81.0
45.19,80.0
45.2,86.0
45.21,63.0
45.22,77.0
45.23,123.0
45.24,73.0
45.25,103.0
45.26,71.0
45.27,83.0
45.28,85.0
45.29,86.0
45.3,90.0
45.31,82.0
45.32,86.0
45.33,79.0
45.34,72.0
45.35,92.0
45.36,77.0
45.37,87.0
45.38,85.0
45.39,76.0
45.4,96.0
45.41,108.0
45.42,93.0
45.43,77.0
45.44,68.0
45.45,81.0
45.46,81.0
45.47,86.0
45.48,94.0
45.49,86.0
45.5,93.0
45.51,81.0
45.52,80.0
45.53,91.0
45.54,74.0
45.55,79.0
45.56,84.0
45.57,82.0
45.58,103.0
45.59,92.0
45.6,79.0
45.61,93.0
45.62,82.0
45.63,82.0
45.64,87.0
45.65,70.0
45.66,81.0
45.67,94.0
45.68,94.0
45.69,90.0
45.7,96.0
45.71,74.0
45.72,104.0
45.73,96.0
45.74,76.0
45.75,81.0
45.76,86.0
45.77,95.0
45.78,73.0
45.79,87.0
45.8,69.0
45.81,78.0
45.82,94.0
45.83,81.0
45.84,85.0
45.85,101.0
45.86,74.0
45.87,79.0
45.88,77.0
45.89,90.0
45.9,89.0
45.91,91.0
45.92,74.0
45.93,100.0
45.94,84.0
45.95,105.0
45.96,92.0
45.97,82.0
45.98,92.0
45.99,81.0
46.0,101.0
46.01,83.0
46.02,92.0
46.03,86.0
46.04,83.0
46.05,91.0
46.06,88.0
46.07,83.0
46.08,104.0
46.09,65.0
46.1,83.0
46.11,81.0
46.12,84.0
46.13,81.0
46.14,82.0
46.15,86.0
46.16,72.0
46.17,83.0
46.18,81.0
46.19,71.0
46.2,87.0
46.21,102.0
46.22,85.0
46.23,81.0
46.24,75.0
46.25,86.0
46.26,77.0
46.27,78.0
46.28,94.0
46.29,84.0
46.3,82.0
46.31,94.0
46.32,89.0
46.33,95.0
46.34,79.0
46.35,66.0
46.36,72.0
46.37,70.0
46.38,78.0
46.39,81.0
46.4,90.0
46.41,69.0
46.42,87.0
46.43,81.0
46.44,94.0
46.45,80.0
46.46,79.0
46.47,84.0
46.48,76.0
46.49,82.0
46.5,99.0
46.51,75.0
46.52,84.0
46.53,94.0
46.54,74.0
46.55,82.0
46.56,78.0
46.57,74.0
46.58,84.0
46.59,86.0
46.6,83.0
46.61,99.0
46.62,85.0
46.63,82.0
46.64,71.0
46.65,82.0
46.66,75.0
46.67,83.0
46.68,75.0
46.69,82.0
46.7,85.0
46.71,98.0
46.72,91.0
46.73,80.0
46.74,88.0
46.75,75.0
46.76,89.0
46.77,91.0
46.78,72.0
46.79,83.0
46.8,83.0
46.81,76.0
46.82,75.0
46.83,95.0
46.84,94.0
46.85,98.0
46.86,81.0
46.87,77.0
46.88,79.0
46.89,84.0
46.9,105.0
46.91,77.0
46.92,59.0
46.93,100.0
46.94,84.0
46.95,85.0
46.96,75.0
46.97,86.0
46.98,84.0
46.99,88.0
47.0,96.0
47.01,77.0
47.02,92.0
47.03,72.0
47.04,85.0
47.05,83.0
47.06,80.0
47.07,84.0
47.08,67.0
47.09,88.0
47.1,98.0
47.11,101.0
47.12,69.0
47.13,72.0
47.14,73.0
47.15,89.0
47.16,78.0
47.17,86.0
47.18,79.0
47.19,90.0
47.2,96.0
47.21,71.0
47.22,85.0
47.23,84.0
47.24,87.0
47.25,88.0
47.26,83.0
47.27,104.0
47.28,81.0
47.29,92.0
47.3,80.0
47.31,95.0
47.32,91.0
47.33,83.0
47.34,99.0
47.35,85.0
47.36,97.0
47.37,97.0
47.38,87.0
47.39,77.0
47.4,92.0
47.41,98.0
47.42,78.0
47.43,95.0
47.44,78.0
47.45,70.0
47.46,90.0
47.47,82.0
47.48,85.0
47.49,68.0
47.5,95.0
47.51,107.0
47.52,100.0
47.53,85.0
47.54,94.0
47.55,74.0
47.56,79.0
47.57,77.0
47.58,90.0
47.59,98.0
47.6,74.0
47.61,80.0
47.62,87.0
47.63,71.0
47.64,103.0
47.65,101.0
47.66,82.0
47.67,87.0
47.68,92.0
47.69,71.0
47.7,80.0
47.71,90.0
47.72,76.0
47.73,81.0
47.74,70.0
47.75,90.0
47.76,103.0
47.77,94.0
47.78,86.0
47.79,80.0
47.8,85.0
47.81,85.0
47.82,95.0
47.83,53.0
47.84,80.0
47.85,86.0
47.86,106.0
47.87,82.0
47.88,85.0
47.89,101.0
47.9,94.0
47.91,81.0
47.92,82.0
47.93,84.0
47.94,96.0
47.95,79.0
47.96,84.0
47.97,90.0
47.98,95.0
47.99,93.0
48.0,73.0
48.01,97.0
48.02,79.0
48.03,97.0
48.04,75.0
48.05,85.0
48.06,86.0
48.07,81.0
48.08,79.0
48.09,77.0
48.1,82.0
48.11,82.0
48.12,91.0
48.13,92.0
48.14,63.0
48.15,79.0
48.16,81.0
48.17,87.0
48.18,77.0
48.19,81.0
48.2,74.0
48.21,88.0
48.22,84.0
48.23,89.0
48.24,84.0
48.25,82.0
48.26,75.0
48.27,73.0
48.28,90.0
48.29,86.0
48.3,104.0
48.31,74.0
48.32,98.0
48.33,81.0
48.34,98.0
48.35,80.0
48.36,76.0
48.37,82.0
48.38,99.0
48.39,99.0
48.4,96.0
48.41,71.0
48.42,88.0
48.43,66.0
48.44,100.0
48.45,81.0
48.46,110.0
48.47,83.0
48.48,85.0
48.49,73.0
48.5,82.0
48.51,94.0
48.52,97.0
48.53,90.0
48.54,93.0
48.55,88.0
48.56,86.0
48.57,98.0
48.58,92.0
48.59,83.0
48.6,86.0
48.61,95.0
48.62,81.0
48.63,100.0
48.64,96.0
48.65,84.0
48.66,74.0
48.67,79.0
48.68,104.0
48.69,96.0
48.7,98.0
48.71,104.0
48.72,110.0
48.73,124.0
48.74,118.0
48.75,148.0
48.76,180.0
48.77,233.0
48.78,188.0
48.79,163.0
48.8,145.0
48.81,114.0
48.82,120.0
48.83,109.0
48.84,80.0
48.85,87.0
48.86,99.0
48.87,101.0
48.88,140.0
48.89,170.0
48.9,134.0
48.91,139.0
48.92,147.0
48.93,107.0
48.94,93.0
48.95,88.0
48.96,85.0
48.97,88.0
48.98,88.0
48.99,92.0
49.0,102.0
49.01,86.0
49.02,96.0
49.03,105.0
49.04,91.0
49.05,90.0
49.06,67.0
49.07,97.0
49.08,103.0
49.09,76.0
49.1,76.0
49.11,87.0
49.12,86.0
49.13,85.0
49.14,79.0
49.15,81.0
49.16,89.0
49.17,94.0
49.18,79.0
49.19,78.0
49.2,80.0
49.21,82.0
49.22,80.0
49.23,80.0
49.24,109.0
49.25,88.0
49.26,80.0
49.27,94.0
49.28,76.0
49.29,82.0
49.3,77.0
49.31,77.0
49.32,82.0
49.33,86.0
49.34,79.0
49.35,93.0
49.36,92.0
49.37,83.0
49.38,78.0
49.39,81.0
49.4,79.0
49.41,96.0
49.42,69.0
49.43,79.0
49.44,87.0
49.45,78.0
49.46,77.0
49.47,79.0
49.48,106.0
49.49,93.0
49.5,90.0
49.51,70.0
49.52,86.0
49.53,97.0
49.54,104.0
49.55,74.0
49.56,74.0
49.57,63.0
49.58,96.0
49.59,70.0
49.6,79.0
49.61,80.0
49.62,89.0
49.63,97.0
49.64,91.0
49.65,80.0
49.66,86.0
49.67,79.0
49.68,80.0
49.69,84.0
49.7,71.0
49.71,72.0
49.72,97.0
49.73,90.0
49.74,79.0
49.75,84.0
49.76,81.0
49.77,81.0
49.78,91.0
49.79,76.0
49.8,83.0
49.81,102.0
49.82,87.0
49.83,83.0
49.84,95.0
49.85,87.0
49.86,98.0
49.87,97.0
49.88,98.0
49.89,88.0
49.9,80.0
49.91,77.0
49.92,73.0
49.93,88.0
49.94,96.0
49.95,81.0
49.96,84.0
49.97,76.0
49.98,89.0
49.99,88.0
50.0,77.0
50.01,94.0
50.02,87.0
50.03,81.0
50.04,90.0
50.05,84.0
50.06,92.0
50.07,80.0
50.08,70.0
50.09,106.0
50.1,69.0
50.11,99.0
50.12,92.0
50.13,85.0
50.14,91.0
50.15,97.0
50.16,74.0
50.17,70.0
50.18,89.0
50.19,74.0
50.2,87.0
50.21,100.0
50.22,82.0
50.23,99.0
50.24,80.0
50.25,84.0
50.26,90.0
50.27,100.0
50.28,80.0
50.29,75.0
50.3,88.0
50.31,75.0
50.32,81.0
50.33,79.0
50.34,81.0
50.35,93.0
50.36,68.0
50.37,87.0
50.38,91.0
50.39,96.0
50.4,73.0
50.41,89.0
50.42,99.0
50.43,88.0
50.44,105.0
50.45,87.0
50.46,93.0
50.47,100.0
50.48,78.0
50.49,80.0
50.5,87.0
50.51,97.0
50.52,86.0
50.53,87.0
50.54,77.0
50.55,81.0
50.56,82.0
50.57,93.0
50.58,96.0
50.59,92.0
50.6,78.0
50.61,93.0
50.62,89.0
50.63,62.0
50.64,91.0
50.65,92.0
50.66,95.0
50.67,92.0
50.68,77.0
50.69,78.0
50.7,77.0
50.71,87.0
50.72,78.0
50.73,100.0
50.74,95.0
50.75,77.0
50.76,78.0
50.77,90.0
50.78,82.0
50.79,89.0
50.8,78.0
50.81,82.0
50.82,93.0
50.83,88.0
50.84,86.0
50.85,76.0
50.86,88.0
50.87,75.0
50.88,81.0
50.89,93.0
50.9,83.0
50.91,87.0
50.92,88.0
50.93,83.0
50.94,86.0
50.95,88.0
50.96,75.0
50.97,84.0
50.98,91.0
50.99,89.0
51.0,83.0
51.01,87.0
51.02,97.0
51.03,80.0
51.04,92.0
51.05,85.0
51.06,88.0
51.07,86.0
51.08,94.0
51.09,74.0
51.1,80.0
51.11,89.0
51.12,80.0
51.13,82.0
51.14,71.0
51.15,94.0
51.16,85.0
51.17,95.0
51.18,106.0
51.19,71.0
51.2,120.0
51.21,96.0
51.22,83.0
51.23,88.0
51.24,91.0
51.25,78.0
51.26,85.0
51.27,96.0
51.28,70.0
51.29,88.0
51.3,63.0
51.31,90.0
51.32,107.0
51.33,91.0
51.34,75.0
51.35,79.0
51.36,87.0
51.37,73.0
51.38,90.0
51.39,86.0
51.4,79.0
51.41,91.0
51.42,97.0
51.43,84.0
51.44,84.0
51.45,84.0
51.46,96.0
51.47,90.0
51.48,95.0
51.49,89.0
51.5,79.0
51.51,84.0
51.52,83.0
51.53,94.0
51.54,100.0
51.55,92.0
51.56,87.0
51.57,96.0
51.58,83.0
51.59,93.0
51.6,81.0
51.61,93.0
51.62,89.0
51.63,86.0
51.64,69.0
51.65,81.0
51.66,86.0
51.67,80.0
51.68,94.0
51.69,86.0
51.7,86.0
51.71,88.0
51.72,75.0
51.73,81.0
51.74,78.0
51.75,79.0
51.76,86.0
51.77,99.0
51.78,119.0
51.79,75.0
51.8,84.0
51.81,81.0
51.82,86.0
51.83,87.0
51.84,96.0
51.85,95.0
51.86,83.0
51.87,89.0
51.88,102.0
51.89,95.0
51.9,72.0
51.91,71.0
51.92,90.0
51.93,95.0
51.94,99.0
51.95,80.0
51.96,94.0
51.97,75.0
51.98,70.0
51.99,88.0
52.0,88.0
52.01,85.0
52.02,75.0
52.03,78.0
52.04,74.0
52.05,97.0
52.06,68.0
52.07,86.0
52.08,110.0
52.09,85.0
52.1,83.0
52.11,99.0
52.12,96.0
52.13,89.0
52.14,93.0
52.15,79.0
52.16,80.0
52.17,78.0
52.18,90.0
52.19,89.0
52.2,80.0
52.21,79.0
52.22,98.0
52.23,76.0
52.24,100.0
52.25,88.0
52.26,76.0
52.27,80.0
52.28,77.0
52.29,98.0
52.3,92.0
52.31,89.0
52.32,89.0
52.33,88.0
52.34,89.0
52.35,79.0
52.36,95.0
52.37,71.0
52.38,96.0
52.39,69.0
52.4,75.0
52.41,72.0
52.42,91.0
52.43,78.0
52.44,94.0
52.45,76.0
52.46,95.0
52.47,83.0
52.48,75.0
52.49,79.0
52.5,81.0
52.51,83.0
52.52,98.0
52.53,100.0
52.54,93.0
52.55,78.0
52.56,86.0
52.57,96.0
52.58,73.0
52.59,81.0
52.6,89.0
52.61,85.0
52.62,84.0
52.63,81.0
52.64,80.0
52.65,71.0
52.66,79.0
52.67,82.0
52.68,102.0
52.69,107.0
52.7,89.0
52.71,89.0
52.72,85.0
52.73,70.0
52.74,67.0
52.75,80.0
52.76,89.0
52.77,88.0
52.78,97.0
52.79,83.0
52.8,79.0
52.81,101.0
52.82,75.0
52.83,85.0
52.84,86.0
52.85,78.0
52.86,99.0
52.87,87.0
52.88,82.0
52.89,87.0
52.9,88.0
52.91,63.0
52.92,76.0
52.93,98.0
52.94,92.0
52.95,104.0
52.96,112.0
52.97,86.0
52.98,77.0
52.99,103.0
53.0,85.0
53.01,82.0
53.02,89.0
53.03,75.0
53.04,99.0
53.05,86.0
53.06,91.0
53.07,86.0
53.08,91.0
53.09,68.0
53.1,83.0
53.11,91.0
53.12,91.0
53.13,89.0
53.14,92.0
53.15,84.0
53.16,99.0
53.17,98.0
53.18,83.0
53.19,87.0
53.2,84.0
53.21,80.0
53.22,89.0
53.23,86.0
53.24,92.0
53.25,100.0
53.26,81.0
53.27,75.0
53.28,82.0
53.29,90.0
53.3,96.0
53.31,98.0
53.32,91.0
53.33,88.0
53.34,93.0
53.35,80.0
53.36,74.0
53.37,89.0
53.38,93.0
53.39,79.0
53.4,78.0
53.41,87.0
53.42,93.0
53.43,75.0
53.44,80.0
53.45,86.0
53.46,89.0
53.47,69.0
53.48,77.0
53.49,93.0
53.5,65.0
53.51,68.0
53.52,81.0
53.53,92.0
53.54,77.0
53.55,85.0
53.56,101.0
53.57,69.0
53.58,83.0
53.59,91.0
53.6,83.0
53.61,100.0
53.62,96.0
53.63,75.0
53.64,79.0
53.65,84.0
53.66,83.0
53.67,76.0
53.68,85.0
53.69,77.0
53.7,94.0
53.71,81.0
53.72,88.0
53.73,87.0
53.74,93.0
53.75,80.0
53.76,95.0
53.77,81.0
53.78,91.0
53.79,87.0
53.8,100.0
53.81,82.0
53.82,81.0
53.83,88.0
53.84,83.0
53.85,98.0
53.86,80.0
53.87,93.0
53.88,86.0
53.89,98.0
53.9,94.0
53.91,86.0
53.92,74.0
53.93,98.0
53.94,72.0
53.95,92.0
53.96,85.0
53.97,78.0
53.98,77.0
53.99,74.0
54.0,78.0
54.01,88.0
54.02,80.0
54.03,91.0
54.04,78.0
54.05,79.0
54.06,88.0
54.07,83.0
54.08,80.0
54.09,78.0
54.1,81.0
54.11,78.0
54.12,83.0
54.13,84.0
54.14,87.0
54.15,93.0
54.16,94.0
54.17,85.0
54.18,72.0
54.19,76.0
54.2,83.0
54.21,86.0
54.22,84.0
54.23,99.0
54.24,75.0
54.25,92.0
54.26,79.0
54.27,94.0
54.28,118.0
54.29,78.0
54.3,78.0
54.31,86.0
54.32,86.0
54.33,79.0
54.34,71.0
54.35,91.0
54.36,79.0
54.37,75.0
54.38,62.0
54.39,87.0
54.4,91.0
54.41,90.0
54.42,78.0
54.43,94.0
54.44,85.0
54.45,101.0
54.46,86.0
54.47,90.0
54.48,90.0
54.49,89.0
54.5,96.0
54.51,72.0
54.52,82.0
54.53,85.0
54.54,86.0
54.55,79.0
54.56,82.0
54.57,91.0
54.58,70.0
54.59,87.0
54.6,97.0
54.61,90.0
54.62,72.0
54.63,99.0
54.64,94.0
54.65,93.0
54.66,99.0
54.67,100.0
54.68,77.0
54.69,78.0
54.7,103.0
54.71,61.0
54.72,100.0
54.73,102.0
54.74,81.0
54.75,92.0
54.76,90.0
54.77,77.0
54.78,83.0
54.79,85.0
54.8,90.0
54.81,70.0
54.82,76.0
54.83,98.0
54.84,112.0
54.85,75.0
54.86,76.0
54.87,77.0
54.88,82.0
54.89,93.0
54.9,90.0
54.91,93.0
54.92,87.0
54.93,87.0
54.94,79.0
54.95,95.0
54.96,92.0
54.97,97.0
54.98,68.0
54.99,86.0
55.0,117.0
55.01,82.0
55.02,78.0
55.03,95.0
55.04,92.0
55.05,95.0
55.06,89.0
55.07,68.0
55.08,77.0
55.09,76.0
55.1,85.0
55.11,84.0
55.12,92.0
55.13,72.0
55.14,90.0
55.15,93.0
55.16,79.0
55.17,84.0
55.18,82.0
55.19,96.0
55.2,75.0
55.21,95.0
55.22,110.0
55.23,105.0
55.24,104.0
55.25,119.0
55.26,116.0
55.27,115.0
55.28,146.0
55.29,174.0
55.3,135.0
55.31,139.0
55.32,121.0
55.33,106.0
55.34,94.0
55.35,100.0
55.36,111.0
55.37,97.0
55.38,86.0
55.39,95.0
55.4,102.0
55.41,102.0
55.42,109.0
55.43,114.0
55.44,124.0
55.45,111.0
55.46,116.0
55.47,104.0
55.48,95.0
55.49,103.0
55.5,89.0
55.51,83.0
55.52,101.0
55.53,95.0
55.54,85.0
55.55,87.0
55.56,81.0
55.57,78.0
55.58,78.0
55.59,95.0
55.6,77.0
55.61,76.0
55.62,89.0
55.63,90.0
55.64,72.0
55.65,89.0
55.66,77.0
55.67,91.0
55.68,79.0
55.69,84.0
55.7,90.0
55.71,92.0
55.72,79.0
55.73,77.0
55.74,84.0
55.75,84.0
55.76,86.0
55.77,70.0
55.78,69.0
55.79,78.0
55.8,84.0
55.81,91.0
55.82,84.0
55.83,95.0
55.84,92.0
55.85,78.0
55.86,86.0
55.87,91.0
55.88,81.0
55.89,83.0
55.9,84.0
55.91,84.0
55.92,84.0
55.93,88.0
55.94,76.0
55.95,95.0
55.96,95.0
55.97,67.0
55.98,85.0
55.99,87.0
56.0,69.0
56.01,85.0
56.02,95.0
56.03,100.0
56.04,85.0
56.05,89.0
56.06,83.0
56.07,91.0
56.08,86.0
56.09,86.0
56.1,87.0
56.11,68.0
56.12,88.0
56.13,85.0
56.14,85.0
56.15,89.0
56.16,75.0
56.17,82.0
56.18,73.0
56.19,88.0
56.2,83.0
56.21,90.0
56.22,77.0
56.23,82.0
56.24,91.0
56.25,87.0
56.26,78.0
56.27,78.0
56.28,95.0
56.29,75.0
56.3,89.0
56.31,80.0
56.32,90.0
56.33,83.0
56.34,82.0
56.35,71.0
56.36,93.0
56.37,102.0
56.38,91.0
56.39,90.0
56.4,95.0
56.41,91.0
56.42,100.0
56.43,85.0
56.44,91.0
56.45,84.0
56.46,87.0
56.47,77.0
56.48,83.0
56.49,94.0
56.5,85.0
56.51,92.0
56.52,89.0
56.53,91.0
56.54,88.0
56.55,77.0
56.56,78.0
56.57,80.0
56.58,85.0
56.59,92.0
56.6,84.0
56.61,76.0
56.62,85.0
56.63,85.0
56.64,94.0
56.65,82.0
56.66,115.0
56.67,76.0
56.68,79.0
56.69,75.0
56.7,82.0
56.71,86.0
56.72,91.0
56.73,101.0
56.74,65.0
56.75,86.0
56.76,82.0
56.77,89.0
56.78,101.0
56.79,83.0
56.8,84.0
56.81,90.0
56.82,99.0
56.83,87.0
56.84,83.0
56.85,76.0
56.86,87.0
56.87,90.0
56.88,88.0
56.89,111.0
56.9,87.0
56.91,85.0
56.92,82.0
56.93,89.0
56.94,81.0
56.95,76.0
56.96,88.0
56.97,87.0
56.98,95.0
56.99,80.0
57.0,83.0
57.01,84.0
57.02,87.0
57.03,77.0
57.04,75.0
57.05,70.0
57.06,85.0
57.07,85.0
57.08,98.0
57.09,91.0
57.1,84.0
57.11,73.0
57.12,81.0
57.13,81.0
57.14,93.0
57.15,77.0
57.16,92.0
57.17,87.0
57.18,82.0
57.19,83.0
57.2,86.0
57.21,82.0
57.22,90.0
57.23,89.0
57.24,88.0
57.25,104.0
57.26,75.0
57.27,84.0
57.28,79.0
57.29,85.0
57.3,92.0
57.31,85.0
57.32,112.0
57.33,81.0
57.34,76.0
57.35,86.0
57.36,75.0
57.37,77.0
57.38,99.0
57.39,74.0
57.4,72.0
57.41,90.0
57.42,86.0
57.43,90.0
57.44,92.0
57.45,79.0
57.46,94.0
57.47,87.0
57.48,91.0
57.49,85.0
57.5,102.0
57.51,98.0
57.52,109.0
57.53,94.0
57.54,84.0
57.55,91.0
57.56,98.0
57.57,74.0
57.58,106.0
57.59,96.0
57.6,85.0
57.61,96.0
57.62,102.0
57.63,97.0
57.64,109.0
57.65,94.0
57.66,91.0
57.67,102.0
57.68,118.0
57.69,112.0
57.7,126.0
57.71,154.0
57.72,162.0
57.73,193.0
57.74,252.0
57.75,291.0
57.76,258.0
57.77,198.0
57.78,150.0
57.79,157.0
57.8,128.0
57.81,107.0
57.82,103.0
57.83,101.0
57.84,76.0
57.85,123.0
57.86,116.0
57.87,121.0
57.88,138.0
57.89,165.0
57.9,181.0
57.91,177.0
57.92,173.0
57.93,125.0
57.94,123.0
57.95,127.0
57.96,108.0
57.97,95.0
57.98,80.0
57.99,92.0
58.0,108.0
58.01,91.0
58.02,110.0
58.03,79.0
58.04,107.0
58.05,95.0
58.06,90.0
58.07,85.0
58.08,86.0
58.09,97.0
58.1,87.0
58.11,89.0
58.12,83.0
58.13,97.0
58.14,95.0
58.15,94.0
58.16,74.0
58.17,92.0
58.18,89.0
58.19,100.0
58.2,85.0
58.21,107.0
58.22,80.0
58.23,100.0
58.24,83.0
58.25,92.0
58.26,105.0
58.27,91.0
58.28,94.0
58.29,96.0
58.3,78.0
58.31,75.0
58.32,95.0
58.33,82.0
58.34,81.0
58.35,56.0
58.36,99.0
58.37,97.0
58.38,88.0
58.39,81.0
58.4,90.0
58.41,77.0
58.42,94.0
58.43,71.0
58.44,82.0
58.45,81.0
58.46,92.0
58.47,82.0
58.48,91.0
58.49,87.0
58.5,99.0
58.51,89.0
58.52,85.0
58.53,83.0
58.54,88.0
58.55,79.0
58.56,93.0
58.57,78.0
58.58,96.0
58.59,70.0
58.6,72.0
58.61,80.0
58.62,76.0
58.63,82.0
58.64,79.0
58.65,75.0
58.66,78.0
58.67,92.0
58.68,93.0
58.69,94.0
58.7,81.0
58.71,78.0
58.72,72.0
58.73,77.0
58.74,84.0
58.75,82.0
58.76,85.0
58.77,83.0
58.78,73.0
58.79,92.0
58.8,102.0
58.81,76.0
58.82,78.0
58.83,98.0
58.84,93.0
58.85,99.0
58.86,94.0
58.87,104.0
58.88,88.0
58.89,101.0
58.9,90.0
58.91,109.0
58.92,82.0
58.93,90.0
58.94,96.0
58.95,96.0
58.96,106.0
58.97,107.0
58.98,88.0
58.99,74.0
59.0,94.0
59.01,89.0
59.02,88.0
59.03,101.0
59.04,90.0
59.05,88.0
59.06,93.0
59.07,97.0
59.08,80.0
59.09,77.0
59.1,79.0
59.11,100.0
59.12,83.0
59.13,106.0
59.14,89.0
59.15,92.0
59.16,70.0
59.17,66.0
59.18,85.0
59.19,89.0
59.2,66.0
59.21,71.0
59.22,91.0
59.23,73.0
59.24,100.0
59.25,100.0
59.26,78.0
59.27,88.0
59.28,90.0
59.29,72.0
59.3,83.0
59.31,91.0
59.32,95.0
59.33,76.0
59.34,99.0
59.35,98.0
59.36,106.0
59.37,81.0
59.38,72.0
59.39,105.0
59.4,90.0
59.41,90.0
59.42,95.0
59.43,92.0
59.44,94.0
59.45,95.0
59.46,86.0
59.47,81.0
59.48,105.0
59.49,91.0
59.5,85.0
59.51,87.0
59.52,102.0
59.53,104.0
59.54,87.0
59.55,86.0
59.56,97.0
59.57,110.0
59.58,89.0
59.59,65.0
59.6,90.0
59.61,95.0
59.62,89.0
59.63,101.0
59.64,78.0
59.65,85.0
59.66,93.0
59.67,79.0
59.68,99.0
59.69,93.0
59.7,88.0
59.71,87.0
59.72,93.0
59.73,92.0
59.74,103.0
59.75,94.0
59.76,80.0
59.77,94.0
59.78,111.0
59.79,114.0
59.8,83.0
59.81,89.0
59.82,104.0
59.83,117.0
59.84,109.0
59.85,89.0
59.86,85.0
59.87,100.0
59.88,104.0
59.89,85.0
59.9,101.0
59.91,85.0
59.92,93.0
59.93,87.0
59.94,99.0
59.95,93.0
59.96,101.0
59.97,75.0
59.98,69.0
59.99,92.0
60.0,79.0
60.01,100.0
60.02,100.0
60.03,90.0
60.04,113.0
60.05,110.0
60.06,97.0
60.07,97.0
60.08,127.0
60.09,143.0
60.1,125.0
60.11,174.0
60.12,210.0
60.13,267.0
60.14,317.0
60.15,350.0
60.16,307.0
60.17,234.0
60.18,163.0
60.19,160.0
60.2,121.0
60.21,126.0
60.22,124.0
60.23,110.0
60.24,114.0
60.25,129.0
60.26,110.0
60.27,152.0
60.28,126.0
60.29,179.0
60.3,172.0
60.31,209.0
60.32,202.0
60.33,186.0
60.34,138.0
60.35,132.0
60.36,118.0
60.37,125.0
60.38,101.0
60.39,101.0
60.4,93.0
60.41,109.0
60.42,79.0
60.43,91.0
60.44,79.0
60.45,94.0
60.46,93.0
60.47,82.0
60.48,89.0
60.49,92.0
60.5,100.0
60.51,89.0
60.52,79.0
60.53,80.0
60.54,73.0
60.55,81.0
60.56,89.0
60.57,108.0
60.58,100.0
60.59,109.0
60.6,92.0
60.61,96.0
60.62,88.0
60.63,71.0
60.64,72.0
60.65,89.0
60.66,98.0
60.67,88.0
60.68,82.0
60.69,91.0
60.7,100.0
60.71,73.0
60.72,92.0
60.73,81.0
60.74,71.0
60.75,85.0
60.76,74.0
60.77,97.0
60.78,97.0
60.79,77.0
60.8,84.0
60.81,92.0
60.82,97.0
60.83,85.0
60.84,85.0
60.85,80.0
60.86,84.0
60.87,92.0
60.88,87.0
60.89,83.0
60.9,66.0
60.91,91.0
60.92,91.0
60.93,81.0
60.94,94.0
60.95,78.0
60.96,79.0
60.97,79.0
60.98,94.0
60.99,93.0
61.0,89.0
61.01,71.0
61.02,80.0
61.03,92.0
61.04,66.0
61.05,81.0
61.06,77.0
61.07,91.0
61.08,82.0
61.09,76.0
61.1,108.0
61.11,85.0
61.12,75.0
61.13,89.0
61.14,87.0
61.15,96.0
61.16,85.0
61.17,98.0
61.18,80.0
61.19,78.0
61.2,97.0
61.21,81.0
61.22,84.0
61.23,80.0
61.24,89.0
61.25,68.0
61.26,76.0
61.27,84.0
61.28,84.0
61.29,75.0
61.3,90.0
61.31,86.0
61.32,85.0
61.33,83.0
61.34,85.0
61.35,91.0
61.36,79.0
61.37,81.0
61.38,81.0
61.39,87.0
61.4,84.0
61.41,87.0
61.42,99.0
61.43,76.0
61.44,79.0
61.45,86.0
61.46,85.0
61.47,84.0
61.48,81.0
61.49,89.0
61.5,91.0
61.51,82.0
61.52,92.0
61.53,94.0
61.54,86.0
61.55,78.0
61.56,81.0
61.57,76.0
61.58,90.0
61.59,99.0
61.6,84.0
61.61,97.0
61.62,87.0
61.63,83.0
61.64,98.0
61.65,92.0
61.66,83.0
61.67,77.0
61.68,85.0
61.69,105.0
61.7,83.0
61.71,67.0
61.72,85.0
61.73,83.0
61.74,88.0
61.75,87.0
61.76,75.0
61.77,93.0
61.78,76.0
61.79,81.0
61.8,107.0
61.81,100.0
61.82,72.0
61.83,105.0
61.84,93.0
61.85,97.0
61.86,76.0
61.87,81.0
61.88,69.0
61.89,77.0
61.9,88.0
61.91,98.0
61.92,87.0
61.93,97.0
61.94,83.0
61.95,87.0
61.96,76.0
61.97,76.0
61.98,68.0
61.99,78.0
62.0,83.0
62.01,94.0
62.02,78.0
62.03,78.0
62.04,71.0
62.05,90.0
62.06,79.0
62.07,94.0
62.08,102.0
62.09,90.0
62.1,96.0
62.11,93.0
62.12,92.0
62.13,90.0
62.14,83.0
62.15,86.0
62.16,91.0
62.17,84.0
62.18,83.0
62.19,76.0
62.2,83.0
62.21,87.0
62.22,75.0
62.23,83.0
62.24,91.0
62.25,85.0
62.26,73.0
62.27,79.0
62.28,116.0
62.29,93.0
62.3,96.0
62.31,84.0
62.32,87.0
62.33,77.0
62.34,74.0
62.35,73.0
62.36,89.0
62.37,88.0
62.38,77.0
62.39,69.0
62.4,83.0
62.41,95.0
62.42,93.0
62.43,80.0
62.44,82.0
62.45,82.0
62.46,77.0
62.47,91.0
62.48,77.0
62.49,84.0
62.5,87.0
62.51,93.0
62.52,84.0
62.53,75.0
62.54,95.0
62.55,96.0
62.56,81.0
62.57,88.0
62.58,78.0
62.59,103.0
62.6,77.0
62.61,72.0
62.62,97.0
62.63,85.0
62.64,81.0
62.65,80.0
62.66,93.0
62.67,77.0
62.68,85.0
62.69,82.0
62.7,106.0
62.71,101.0
62.72,79.0
62.73,86.0
62.74,88.0
62.75,78.0
62.76,80.0
62.77,92.0
62.78,91.0
62.79,86.0
62.8,88.0
62.81,83.0
62.82,84.0
62.83,76.0
62.84,109.0
62.85,94.0
62.86,91.0
62.87,74.0
62.88,80.0
62.89,101.0
62.9,108.0
62.91,81.0
62.92,90.0
62.93,89.0
62.94,80.0
62.95,85.0
62.96,83.0
62.97,80.0
62.98,78.0
62.99,82.0
63.0,96.0
63.01,68.0
63.02,97.0
63.03,97.0
63.04,95.0
63.05,88.0
63.06,76.0
63.07,75.0
63.08,70.0
63.09,89.0
63.1,95.0
63.11,92.0
63.12,81.0
63.13,89.0
63.14,80.0
63.15,85.0
63.16,89.0
63.17,80.0
63.18,91.0
63.19,99.0
63.2,77.0
63.21,66.0
63.22,79.0
63.23,93.0
63.24,97.0
63.25,79.0
63.26,89.0
63.27,73.0
63.28,97.0
63.29,85.0
63.3,79.0
63.31,70.0
63.32,83.0
63.33,88.0
63.34,79.0
63.35,75.0
63.36,96.0
63.37,103.0
63.38,103.0
63.39,85.0
63.4,87.0
63.41,101.0
63.42,85.0
63.43,91.0
63.44,87.0
63.45,50.0
63.46,81.0
63.47,88.0
63.48,92.0
63.49,115.0
63.5,94.0
63.51,93.0
63.52,82.0
63.53,85.0
63.54,77.0
63.55,75.0
63.56,108.0
63.57,83.0
63.58,80.0
63.59,96.0
63.6,94.0
63.61,88.0
63.62,94.0
63.63,78.0
63.64,89.0
63.65,121.0
63.66,77.0
63.67,76.0
63.68,84.0
63.69,80.0
63.7,75.0
63.71,82.0
63.72,88.0
63.73,83.0
63.74,85.0
63.75,81.0
63.76,81.0
63.77,75.0
63.78,86.0
63.79,86.0
63.8,89.0
63.81,86.0
63.82,89.0
63.83,82.0
63.84,97.0
63.85,93.0
63.86,80.0
63.87,99.0
63.88,98.0
63.89,75.0
63.9,81.0
63.91,95.0
63.92,99.0
63.93,103.0
63.94,75.0
63.95,76.0
63.96,79.0
63.97,94.0
63.98,84.0
63.99,85.0
64.0,90.0
64.01,85.0
64.02,96.0
64.03,87.0
64.04,94.0
64.05,80.0
64.06,88.0
64.07,80.0
64.08,91.0
64.09,87.0
64.1,86.0
64.11,98.0
64.12,97.0
64.13,67.0
64.14,93.0
64.15,94.0
64.16,96.0
64.17,91.0
64.18,88.0
64.19,74.0
64.2,80.0
64.21,82.0
64.22,84.0
64.23,104.0
64.24,88.0
64.25,78.0
64.26,96.0
64.27,100.0
64.28,91.0
64.29,84.0
64.3,80.0
64.31,84.0
64.32,89.0
64.33,89.0
64.34,81.0
64.35,95.0
64.36,91.0
64.37,96.0
64.38,80.0
64.39,83.0
64.4,80.0
64.41,86.0
64.42,69.0
64.43,90.0
64.44,82.0
64.45,101.0
64.46,84.0
64.47,85.0
64.48,86.0
64.49,85.0
64.5,87.0
64.51,97.0
64.52,94.0
64.53,66.0
64.54,81.0
64.55,77.0
64.56,102.0
64.57,96.0
64.58,96.0
64.59,80.0
64.6,78.0
64.61,74.0
64.62,81.0
64.63,77.0
64.64,83.0
64.65,103.0
64.66,85.0
64.67,91.0
64.68,80.0
64.69,84.0
64.7,101.0
64.71,97.0
64.72,112.0
64.73,95.0
64.74,94.0
64.75,103.0
64.76,115.0
64.77,123.0
64.78,138.0
64.79,147.0
64.8,135.0
64.81,121.0
64.82,93.0
64.83,106.0
64.84,84.0
64.85,88.0
64.86,89.0
64.87,106.0
64.88,97.0
64.89,105.0
64.9,128.0
64.91,95.0
64.92,84.0
64.93,117.0
64.94,106.0
64.95,93.0
64.96,105.0
64.97,110.0
64.98,98.0
64.99,95.0
65.0,109.0
65.01,103.0
65.02,107.0
65.03,94.0
65.04,101.0
65.05,80.0
65.06,97.0
65.07,83.0
65.08,94.0
65.09,85.0
65.1,85.0
65.11,81.0
65.12,79.0
65.13,109.0
65.14,79.0
65.15,73.0
65.16,78.0
65.17,82.0
65.18,98.0
65.19,105.0
65.2,81.0
65.21,100.0
65.22,80.0
65.23,111.0
65.24,87.0
65.25,92.0
65.26,89.0
65.27,81.0
65.28,101.0
65.29,73.0
65.3,76.0
65.31,93.0
65.32,87.0
65.33,79.0
65.34,77.0
65.35,81.0
65.36,86.0
65.37,81.0
65.38,89.0
65.39,86.0
65.4,76.0
65.41,86.0
65.42,95.0
65.43,85.0
65.44,90.0
65.45,76.0
65.46,85.0
65.47,77.0
65.48,108.0
65.49,96.0
65.5,84.0
65.51,90.0
65.52,73.0
65.53,97.0
65.54,81.0
65.55,85.0
65.56,87.0
65.57,77.0
65.58,105.0
65.59,97.0
65.6,82.0
65.61,76.0
65.62,82.0
65.63,91.0
65.64,113.0
65.65,88.0
65.66,88.0
65.67,82.0
65.68,90.0
65.69,72.0
65.7,92.0
65.71,67.0
65.72,78.0
65.73,85.0
65.74,83.0
65.75,96.0
65.76,80.0
65.77,89.0
65.78,77.0
65.79,74.0
65.8,86.0
65.81,102.0
65.82,81.0
65.83,86.0
65.84,82.0
65.85,81.0
65.86,117.0
65.87,91.0
65.88,87.0
65.89,98.0
65.9,91.0
65.91,96.0
65.92,91.0
65.93,87.0
65.94,80.0
65.95,87.0
65.96,93.0
65.97,105.0
65.98,102.0
65.99,79.0
66.0,87.0
66.01,99.0
66.02,77.0
66.03,82.0
66.04,93.0
66.05,92.0
66.06,96.0
66.07,89.0
66.08,93.0
66.09,93.0
66.1,102.0
66.11,103.0
66.12,99.0
66.13,94.0
66.14,95.0
66.15,90.0
66.16,83.0
66.17,80.0
66.18,80.0
66.19,87.0
66.2,70.0
66.21,88.0
66.22,102.0
66.23,97.0
66.24,84.0
66.25,105.0
66.26,81.0
66.27,84.0
66.28,85.0
66.29,82.0
66.3,91.0
66.31,107.0
66.32,83.0
66.33,82.0
66.34,105.0
66.35,78.0
66.36,76.0
66.37,90.0
66.38,76.0
66.39,79.0
66.4,95.0
66.41,85.0
66.42,90.0
66.43,91.0
66.44,87.0
66.45,101.0
66.46,86.0
66.47,82.0
66.48,87.0
66.49,91.0
66.5,81.0
66.51,90.0
66.52,95.0
66.53,94.0
66.54,77.0
66.55,101.0
66.56,93.0
66.57,87.0
66.58,91.0
66.59,85.0
66.6,83.0
66.61,80.0
66.62,83.0
66.63,84.0
66.64,91.0
66.65,85.0
66.66,99.0
66.67,90.0
66.68,89.0
66.69,91.0
66.7,102.0
66.71,95.0
66.72,92.0
66.73,81.0
66.74,89.0
66.75,86.0
66.76,83.0
66.77,74.0
66.78,77.0
66.79,105.0
66.8,89.0
66.81,95.0
66.82,74.0
66.83,83.0
66.84,102.0
66.85,80.0
66.86,91.0
66.87,76.0
66.88,87.0
66.89,94.0
66.9,83.0
66.91,85.0
66.92,79.0
66.93,87.0
66.94,68.0
66.95,75.0
66.96,97.0
66.97,80.0
66.98,89.0
66.99,85.0
67.0,92.0
67.01,82.0
67.02,83.0
67.03,87.0
67.04,81.0
67.05,106.0
67.06,98.0
67.07,91.0
67.08,89.0
67.09,90.0
67.1,94.0
67.11,98.0
67.12,82.0
67.13,76.0
67.14,90.0
67.15,94.0
67.16,104.0
67.17,88.0
67.18,91.0
67.19,96.0
67.2,66.0
67.21,93.0
67.22,88.0
67.23,72.0
67.24,88.0
67.25,89.0
67.26,79.0
67.27,79.0
67.28,112.0
67.29,66.0
67.3,86.0
67.31,101.0
67.32,84.0
67.33,94.0
67.34,90.0
67.35,115.0
67.36,86.0
67.37,89.0
67.38,103.0
67.39,86.0
67.4,93.0
67.41,86.0
67.42,68.0
67.43,83.0
67.44,94.0
67.45,86.0
67.46,97.0
67.47,86.0
67.48,79.0
67.49,80.0
67.5,97.0
67.51,101.0
67.52,82.0
67.53,80.0
67.54,95.0
67.55,99.0
67.56,102.0
67.57,80.0
67.58,85.0
67.59,91.0
67.6,75.0
67.61,92.0
67.62,99.0
67.63,75.0
67.64,77.0
67.65,82.0
67.66,89.0
67.67,84.0
67.68,93.0
67.69,100.0
67.7,77.0
67.71,80.0
67.72,79.0
67.73,95.0
67.74,83.0
67.75,98.0
67.76,92.0
67.77,95.0
67.78,93.0
67.79,72.0
67.8,92.0
67.81,96.0
67.82,96.0
67.83,85.0
67.84,100.0
67.85,77.0
67.86,97.0
67.87,92.0
67.88,77.0
67.89,83.0
67.9,92.0
67.91,84.0
67.92,80.0
67.93,104.0
67.94,89.0
67.95,77.0
67.96,86.0
67.97,97.0
67.98,98.0
67.99,69.0
68.0,99.0
68.01,87.0
68.02,97.0
68.03,83.0
68.04,93.0
68.05,77.0
68.06,89.0
68.07,88.0
68.08,94.0
68.09,89.0
68.1,68.0
68.11,83.0
68.12,83.0
68.13,90.0
68.14,99.0
68.15,105.0
68.16,91.0
68.17,85.0
68.18,93.0
68.19,70.0
68.2,90.0
68.21,98.0
68.22,83.0
68.23,97.0
68.24,96.0
68.25,103.0
68.26,73.0
68.27,87.0
68.28,89.0
68.29,99.0
68.3,82.0
68.31,88.0
68.32,95.0
68.33,92.0
68.34,96.0
68.35,78.0
68.36,71.0
68.37,77.0
68.38,92.0
68.39,82.0
68.4,86.0
68.41,82.0
68.42,93.0
68.43,81.0
68.44,95.0
68.45,68.0
68.46,97.0
68.47,88.0
68.48,116.0
68.49,86.0
68.5,82.0
68.51,78.0
68.52,91.0
68.53,83.0
68.54,82.0
68.55,98.0
68.56,79.0
68.57,70.0
68.58,90.0
68.59,86.0
68.6,70.0
68.61,93.0
68.62,91.0
68.63,80.0
68.64,101.0
68.65,91.0
68.66,92.0
68.67,96.0
68.68,103.0
68.69,83.0
68.7,96.0
68.71,104.0
68.72,88.0
68.73,89.0
68.74,90.0
68.75,86.0
68.76,75.0
68.77,98.0
68.78,77.0
68.79,104.0
68.8,96.0
68.81,86.0
68.82,80.0
68.83,90.0
68.84,96.0
68.85,83.0
68.86,82.0
68.87,84.0
68.88,105.0
68.89,75.0
68.9,80.0
68.91,94.0
68.92,84.0
68.93,85.0
68.94,70.0
68.95,89.0
68.96,104.0
68.97,93.0
68.98,74.0
68.99,98.0
69.0,67.0
69.01,81.0
69.02,89.0
69.03,86.0
69.04,70.0
69.05,89.0
69.06,88.0
69.07,91.0
69.08,81.0
69.09,100.0
69.1,91.0
69.11,88.0
69.12,70.0
69.13,70.0
69.14,91.0
69.15,87.0
69.16,70.0
69.17,83.0
69.18,82.0
69.19,95.0
69.2,94.0
69.21,75.0
69.22,78.0
69.23,91.0
69.24,80.0
69.25,75.0
69.26,87.0
69.27,86.0
69.28,105.0
69.29,80.0
69.3,94.0
69.31,98.0
69.32,86.0
69.33,80.0
69.34,96.0
69.35,93.0
69.36,89.0
69.37,75.0
69.38,87.0
69.39,71.0
69.4,100.0
69.41,92.0
69.42,89.0
69.43,92.0
69.44,92.0
69.45,85.0
69.46,93.0
69.47,89.0
69.48,79.0
69.49,86.0
69.5,91.0
69.51,82.0
69.52,84.0
69.53,85.0
69.54,89.0
69.55,79.0
69.56,83.0
69.57,90.0
69.58,87.0
69.59,77.0
69.6,86.0
69.61,91.0
69.62,85.0
69.63,72.0
69.64,73.0
69.65,71.0
69.66,74.0
69.67,78.0
69.68,66.0
69.69,86.0
69.7,89.0
69.71,70.0
69.72,88.0
69.73,95.0
69.74,103.0
69.75,104.0
69.76,78.0
69.77,98.0
69.78,75.0
69.79,97.0
69.8,81.0
69.81,104.0
69.82,94.0
69.83,95.0
69.84,73.0
69.85,98.0
69.86,87.0
69.87,82.0
69.88,75.0
69.89,92.0
69.9,81.0
69.91,82.0
69.92,89.0
69.93,79.0
69.94,85.0
69.95,92.0
69.96,104.0
69.97,79.0
69.98,81.0
69.99,89.0
70.0,103.0
70.01,93.0
70.02,85.0
70.03,66.0
70.04,95.0
70.05,84.0
70.06,97.0
70.07,60.0
70.08,94.0
70.09,88.0
70.1,75.0
70.11,82.0
70.12,75.0
70.13,77.0
70.14,82.0
70.15,91.0
70.16,75.0
70.17,81.0
70.18,90.0
70.19,95.0
70.2,89.0
70.21,85.0
70.22,75.0
70.23,91.0
70.24,89.0
70.25,84.0
70.26,88.0
70.27,89.0
70.28,76.0
70.29,82.0
70.3,87.0
70.31,89.0
70.32,99.0
70.33,80.0
70.34,89.0
70.35,87.0
70.36,98.0
70.37,93.0
70.38,85.0
70.39,89.0
70.4,62.0
70.41,92.0
70.42,81.0
70.43,82.0
70.44,79.0
70.45,84.0
70.46,74.0
70.47,90.0
70.48,77.0
70.49,80.0
70.5,76.0
70.51,105.0
70.52,86.0
70.53,67.0
70.54,78.0
70.55,100.0
70.56,96.0
70.57,71.0
70.58,105.0
70.59,90.0
70.6,71.0
70.61,65.0
70.62,97.0
70.63,78.0
70.64,71.0
70.65,78.0
70.66,94.0
70.67,93.0
70.68,91.0
70.69,92.0
70.7,91.0
70.71,83.0
70.72,96.0
70.73,93.0
70.74,82.0
70.75,95.0
70.76,86.0
70.77,78.0
70.78,86.0
70.79,91.0
70.8,97.0
70.81,75.0
70.82,89.0
70.83,98.0
70.84,99.0
70.85,94.0
70.86,94.0
70.87,79.0
70.88,105.0
70.89,79.0
70.9,82.0
70.91,96.0
70.92,97.0
70.93,88.0
70.94,75.0
70.95,76.0
70.96,92.0
70.97,88.0
70.98,100.0
70.99,108.0
71.0,77.0
71.01,96.0
71.02,84.0
71.03,78.0
71.04,86.0
71.05,89.0
71.06,95.0
71.07,69.0
71.08,74.0
71.09,94.0
71.1,83.0
71.11,106.0
71.12,82.0
71.13,84.0
71.14,79.0
71.15,98.0
71.16,98.0
71.17,94.0
71.18,71.0
71.19,76.0
71.2,81.0
71.21,97.0
71.22,90.0
71.23,85.0
71.24,89.0
71.25,66.0
71.26,83.0
71.27,82.0
71.28,82.0
71.29,77.0
71.3,80.0
71.31,85.0
71.32,90.0
71.33,96.0
71.34,89.0
71.35,104.0
71.36,90.0
71.37,104.0
71.38,100.0
71.39,78.0
71.4,89.0
71.41,87.0
71.42,59.0
71.43,90.0
71.44,78.0
71.45,83.0
71.46,79.0
71.47,79.0
71.48,82.0
71.49,99.0
71.5,88.0
71.51,79.0
71.52,89.0
71.53,103.0
71.54,100.0
71.55,96.0
71.56,91.0
71.57,89.0
71.58,88.0
71.59,82.0
71.6,87.0
71.61,80.0
71.62,95.0
71.63,88.0
71.64,87.0
71.65,86.0
71.66,86.0
71.67,71.0
71.68,90.0
71.69,86.0
71.7,84.0
71.71,92.0
71.72,82.0
71.73,92.0
71.74,90.0
71.75,78.0
71.76,71.0
71.77,79.0
71.78,99.0
71.79,78.0
71.8,72.0
71.81,80.0
71.82,80.0
71.83,96.0
71.84,103.0
71.85,89.0
71.86,79.0
71.87,87.0
71.88,75.0
71.89,70.0
71.9,95.0
71.91,103.0
71.92,83.0
71.93,99.0
71.94,81.0
71.95,90.0
71.96,86.0
71.97,90.0
71.98,99.0
71.99,89.0
72.0,95.0
72.01,95.0
72.02,104.0
72.03,106.0
72.04,85.0
72.05,76.0
72.06,96.0
72.07,80.0
72.08,90.0
72.09,79.0
72.1,99.0
72.11,80.0
72.12,83.0
72.13,102.0
72.14,98.0
72.15,82.0
72.16,92.0
72.17,78.0
72.18,74.0
72.19,75.0
72.2,78.0
72.21,68.0
72.22,88.0
72.23,78.0
72.24,84.0
72.25,95.0
72.26,80.0
72.27,84.0
72.28,91.0
72.29,78.0
72.3,99.0
72.31,90.0
72.32,99.0
72.33,80.0
72.34,78.0
72.35,105.0
72.36,100.0
72.37,89.0
72.38,102.0
72.39,99.0
72.4,95.0
72.41,81.0
72.42,69.0
72.43,78.0
72.44,102.0
72.45,92.0
72.46,72.0
72.47,108.0
72.48,85.0
72.49,78.0
72.5,96.0
72.51,83.0
72.52,87.0
72.53,101.0
72.54,80.0
72.55,81.0
72.56,88.0
72.57,107.0
72.58,86.0
72.59,82.0
72.6,105.0
72.61,80.0
72.62,96.0
72.63,80.0
72.64,78.0
72.65,87.0
72.66,102.0
72.67,93.0
72.68,80.0
72.69,85.0
72.7,92.0
72.71,78.0
72.72,95.0
72.73,91.0
72.74,103.0
72.75,83.0
72.76,86.0
72.77,83.0
72.78,95.0
72.79,92.0
72.8,74.0
72.81,100.0
72.82,92.0
72.83,83.0
72.84,82.0
72.85,98.0
72.86,93.0
72.87,97.0
72.88,107.0
72.89,92.0
72.9,98.0
72.91,88.0
72.92,90.0
72.93,86.0
72.94,74.0
72.95,89.0
72.96,97.0
72.97,90.0
72.98,91.0
72.99,101.0
73.0,100.0
73.01,87.0
73.02,99.0
73.03,73.0
73.04,80.0
73.05,98.0
73.06,89.0
73.07,73.0
73.08,99.0
73.09,79.0
73.1,96.0
73.11,88.0
73.12,88.0
73.13,84.0
73.14,82.0
73.15,68.0
73.16,93.0
73.17,88.0
73.18,110.0
73.19,92.0
73.2,95.0
73.21,101.0
73.22,93.0
73.23,104.0
73.24,87.0
73.25,90.0
73.26,98.0
73.27,88.0
73.28,110.0
73.29,102.0
73.3,81.0
73.31,93.0
73.32,90.0
73.33,93.0
73.34,78.0
73.35,79.0
73.36,84.0
73.37,98.0
73.38,107.0
73.39,79.0
73.4,93.0
73.41,79.0
73.42,96.0
73.43,97.0
73.44,101.0
73.45,107.0
73.46,75.0
73.47,82.0
73.48,97.0
73.49,95.0
73.5,86.0
73.51,85.0
73.52,84.0
73.53,98.0
73.54,101.0
73.55,119.0
73.56,116.0
73.57,132.0
73.58,125.0
73.59,132.0
73.6,112.0
73.61,100.0
73.62,106.0
73.63,99.0
73.64,87.0
73.65,93.0
73.66,83.0
73.67,92.0
73.68,86.0
73.69,101.0
73.7,103.0
73.71,109.0
73.72,83.0
73.73,90.0
73.74,107.0
73.75,110.0
73.76,94.0
73.77,103.0
73.78,117.0
73.79,105.0
73.8,108.0
73.81,90.0
73.82,111.0
73.83,98.0
73.84,65.0
73.85,94.0
73.86,79.0
73.87,87.0
73.88,83.0
73.89,90.0
73.9,100.0
73.91,97.0
73.92,92.0
73.93,82.0
73.94,67.0
73.95,94.0
73.96,95.0
73.97,78.0
73.98,83.0
73.99,84.0
74.0,79.0
74.01,80.0
74.02,87.0
74.03,87.0
74.04,87.0
74.05,85.0
74.06,83.0
74.07,88.0
74.08,67.0
74.09,90.0
74.1,91.0
74.11,80.0
74.12,90.0
74.13,89.0
74.14,78.0
74.15,110.0
74.16,66.0
74.17,73.0
74.18,74.0
74.19,96.0
74.2,80.0
74.21,75.0
74.22,90.0
74.23,88.0
74.24,87.0
74.25,89.0
74.26,85.0
74.27,91.0
74.28,88.0
74.29,87.0
74.3,84.0
74.31,92.0
74.32,98.0
74.33,97.0
74.34,92.0
74.35,82.0
74.36,95.0
74.37,86.0
74.38,85.0
74.39,92.0
74.4,109.0
74.41,94.0
74.42,107.0
74.43,79.0
74.44,94.0
74.45,95.0
74.46,82.0
74.47,73.0
74.48,89.0
74.49,85.0
74.5,102.0
74.51,84.0
74.52,78.0
74.53,84.0
74.54,95.0
74.55,92.0
74.56,86.0
74.57,87.0
74.58,112.0
74.59,98.0
74.6,87.0
74.61,80.0
74.62,77.0
74.63,79.0
74.64,97.0
74.65,69.0
74.66,103.0
74.67,75.0
74.68,92.0
74.69,99.0
74.7,87.0
74.71,84.0
74.72,109.0
74.73,80.0
74.74,91.0
74.75,92.0
74.76,99.0
74.77,93.0
74.78,74.0
74.79,95.0
74.8,77.0
74.81,93.0
74.82,98.0
74.83,89.0
74.84,88.0
74.85,105.0
74.86,95.0
74.87,94.0
74.88,80.0
74.89,82.0
74.9,82.0
74.91,82.0
74.92,73.0
74.93,94.0
74.94,85.0
74.95,91.0
74.96,87.0
74.97,95.0
74.98,92.0
74.99,66.0
75.0,94.0
75.01,83.0
75.02,91.0
75.03,84.0
75.04,98.0
75.05,76.0
75.06,87.0
75.07,86.0
75.08,77.0
75.09,76.0
75.1,91.0
75.11,100.0
75.12,91.0
75.13,85.0
75.14,97.0
75.15,100.0
75.16,99.0
75.17,83.0
75.18,77.0
75.19,95.0
75.2,82.0
75.21,81.0
75.22,92.0
75.23,104.0
75.24,84.0
75.25,96.0
75.26,93.0
75.27,92.0
75.28,93.0
75.29,96.0
75.3,85.0
75.31,106.0
75.32,74.0
75.33,82.0
75.34,99.0
75.35,90.0
75.36,82.0
75.37,90.0
75.38,89.0
75.39,78.0
75.4,78.0
75.41,88.0
75.42,77.0
75.43,95.0
75.44,89.0
75.45,74.0
75.46,81.0
75.47,79.0
75.48,100.0
75.49,85.0
75.5,115.0
75.51,91.0
75.52,77.0
75.53,91.0
75.54,92.0
75.55,98.0
75.56,87.0
75.57,86.0
75.58,76.0
75.59,111.0
75.6,94.0
75.61,104.0
75.62,97.0
75.63,115.0
75.64,107.0
75.65,126.0
75.66,131.0
75.67,126.0
75.68,169.0
75.69,139.0
75.7,171.0
75.71,158.0
75.72,141.0
75.73,138.0
75.74,136.0
75.75,111.0
75.76,95.0
75.77,103.0
75.78,91.0
75.79,106.0
75.8,91.0
75.81,83.0
75.82,94.0
75.83,105.0
75.84,110.0
75.85,101.0
75.86,117.0
75.87,111.0
75.88,111.0
75.89,117.0
75.9,112.0
75.91,134.0
75.92,138.0
75.93,118.0
75.94,118.0
75.95,107.0
75.96,108.0
75.97,98.0
75.98,100.0
75.99,87.0
76.0,82.0
76.01,95.0
76.02,84.0
76.03,101.0
76.04,95.0
76.05,99.0
76.06,93.0
76.07,83.0
76.08,86.0
76.09,76.0
76.1,96.0
76.11,85.0
76.12,83.0
76.13,92.0
76.14,85.0
76.15,97.0
76.16,84.0
76.17,93.0
76.18,96.0
76.19,99.0
76.2,76.0
76.21,101.0
76.22,85.0
76.23,82.0
76.24,86.0
76.25,78.0
76.26,70.0
76.27,91.0
76.28,102.0
76.29,94.0
76.3,86.0
76.31,84.0
76.32,97.0
76.33,76.0
76.34,81.0
76.35,91.0
76.36,90.0
76.37,89.0
76.38,74.0
76.39,85.0
76.4,105.0
76.41,91.0
76.42,93.0
76.43,82.0
76.44,89.0
76.45,97.0
76.46,75.0
76.47,76.0
76.48,96.0
76.49,70.0
76.5,107.0
76.51,94.0
76.52,79.0
76.53,86.0
76.54,88.0
76.55,76.0
76.56,86.0
76.57,100.0
76.58,78.0
76.59,94.0
76.6,81.0
76.61,80.0
76.62,86.0
76.63,95.0
76.64,88.0
76.65,71.0
76.66,93.0
76.67,78.0
76.68,90.0
76.69,79.0
76.7,91.0
76.71,82.0
76.72,91.0
76.73,86.0
76.74,81.0
76.75,79.0
76.76,103.0
76.77,96.0
76.78,72.0
76.79,108.0
76.8,96.0
76.81,86.0
76.82,90.0
76.83,78.0
76.84,94.0
76.85,82.0
76.86,86.0
76.87,87.0
76.88,104.0
76.89,90.0
76.9,101.0
76.91,83.0
76.92,87.0
76.93,93.0
76.94,99.0
76.95,83.0
76.96,78.0
76.97,72.0
76.98,85.0
76.99,81.0
77.0,87.0
77.01,105.0
77.02,80.0
77.03,77.0
77.04,92.0
77.05,96.0
77.06,91.0
77.07,90.0
77.08,83.0
77.09,102.0
77.1,76.0
77.11,110.0
77.12,102.0
77.13,98.0
77.14,87.0
77.15,84.0
77.16,69.0
77.17,93.0
77.18,99.0
77.19,86.0
77.2,84.0
77.21,88.0
77.22,74.0
77.23,93.0
77.24,86.0
77.25,92.0
77.26,83.0
77.27,93.0
77.28,92.0
77.29,94.0
77.3,94.0
77.31,82.0
77.32,101.0
77.33,86.0
77.34,80.0
77.35,64.0
77.36,90.0
77.37,106.0
77.38,93.0
77.39,101.0
77.4,89.0
77.41,72.0
77.42,61.0
77.43,95.0
77.44,105.0
77.45,98.0
77.46,97.0
77.47,79.0
77.48,79.0
77.49,84.0
77.5,104.0
77.51,96.0
77.52,91.0
77.53,101.0
77.54,88.0
77.55,95.0
77.56,87.0
77.57,91.0
77.58,108.0
77.59,86.0
77.6,79.0
77.61,94.0
77.62,86.0
77.63,81.0
77.64,82.0
77.65,89.0
77.66,92.0
77.67,105.0
77.68,88.0
77.69,79.0
77.7,91.0
77.71,79.0
77.72,98.0
77.73,101.0
77.74,89.0
77.75,89.0
77.76,110.0
77.77,88.0
77.78,98.0
77.79,125.0
77.8,121.0
77.81,112.0
77.82,125.0
77.83,129.0
77.84,113.0
77.85,96.0
77.86,112.0
77.87,108.0
77.88,103.0
77.89,96.0
77.9,94.0
77.91,100.0
77.92,103.0
77.93,89.0
77.94,94.0
77.95,75.0
77.96,76.0
77.97,95.0
77.98,92.0
77.99,98.0
78.0,116.0
78.01,88.0
78.02,106.0
78.03,100.0
78.04,94.0
78.05,110.0
78.06,116.0
78.07,91.0
78.08,106.0
78.09,99.0
78.1,86.0
78.11,83.0
78.12,97.0
78.13,94.0
78.14,100.0
78.15,99.0
78.16,93.0
78.17,86.0
78.18,76.0
78.19,83.0
78.2,83.0
78.21,89.0
78.22,71.0
78.23,96.0
78.24,104.0
78.25,91.0
78.26,77.0
78.27,92.0
78.28,89.0
78.29,82.0
78.3,89.0
78.31,103.0
78.32,72.0
78.33,101.0
78.34,75.0
78.35,93.0
78.36,79.0
78.37,98.0
78.38,91.0
78.39,84.0
78.4,100.0
78.41,96.0
78.42,87.0
78.43,80.0
78.44,89.0
78.45,103.0
78.46,67.0
78.47,82.0
78.48,93.0
78.49,93.0
78.5,86.0
78.51,79.0
78.52,79.0
78.53,98.0
78.54,79.0
78.55,86.0
78.56,89.0
78.57,100.0
78.58,81.0
78.59,78.0
78.6,101.0
78.61,98.0
78.62,88.0
78.63,77.0
78.64,84.0
78.65,102.0
78.66,97.0
78.67,80.0
78.68,77.0
78.69,82.0
78.7,89.0
78.71,100.0
78.72,88.0
78.73,87.0
78.74,79.0
78.75,84.0
78.76,79.0
78.77,89.0
78.78,72.0
78.79,92.0
78.8,99.0
78.81,98.0
78.82,91.0
78.83,93.0
78.84,93.0
78.85,101.0
78.86,120.0
78.87,104.0
78.88,98.0
78.89,66.0
78.9,77.0
78.91,97.0
78.92,97.0
78.93,88.0
78.94,86.0
78.95,90.0
78.96,92.0
78.97,86.0
78.98,93.0
78.99,101.0
79.0,119.0
79.01,62.0
79.02,72.0
79.03,109.0
79.04,92.0
79.05,88.0
79.06,74.0
79.07,96.0
79.08,94.0
79.09,102.0
79.1,98.0
79.11,91.0
79.12,76.0
79.13,86.0
79.14,84.0
79.15,88.0
79.16,91.0
79.17,85.0
79.18,76.0
79.19,93.0
79.2,92.0
79.21,76.0
79.22,96.0
79.23,107.0
79.24,83.0
79.25,90.0
79.26,84.0
79.27,94.0
79.28,112.0
79.29,82.0
79.3,61.0
79.31,97.0
79.32,88.0
79.33,92.0
79.34,90.0
79.35,92.0
79.36,93.0
79.37,96.0
79.38,75.0
79.39,96.0
79.4,99.0
79.41,100.0
79.42,79.0
79.43,83.0
79.44,82.0
79.45,71.0
79.46,92.0
79.47,94.0
79.48,80.0
79.49,76.0
79.5,87.0
79.51,80.0
79.52,87.0
79.53,94.0
79.54,75.0
79.55,74.0
79.56,80.0
79.57,88.0
79.58,86.0
79.59,88.0
79.6,85.0
79.61,85.0
79.62,87.0
79.63,102.0
79.64,77.0
79.65,93.0
79.66,83.0
79.67,84.0
79.68,83.0
79.69,92.0
79.7,89.0
79.71,85.0
79.72,83.0
79.73,97.0
79.74,87.0
79.75,87.0
79.76,76.0
79.77,100.0
79.78,103.0
79.79,85.0
79.8,79.0
79.81,76.0
79.82,95.0
79.83,102.0
79.84,88.0
79.85,94.0
79.86,83.0
79.87,77.0
79.88,117.0
79.89,79.0
79.9,93.0
79.91,91.0
79.92,102.0
79.93,87.0
79.94,90.0
79.95,87.0
79.96,90.0
79.97,92.0
79.98,101.0
79.99,90.0
80.0,95.0
80.01,89.0
80.02,82.0
80.03,87.0
80.04,93.0
80.05,77.0
80.06,93.0
80.07,100.0
80.08,84.0
80.09,91.0
80.1,95.0
80.11,85.0
80.12,85.0
80.13,95.0
80.14,89.0
80.15,77.0
80.16,77.0
80.17,72.0
80.18,88.0
80.19,90.0
80.2,74.0
80.21,71.0
80.22,101.0
80.23,94.0
80.24,82.0
80.25,83.0
80.26,87.0
80.27,75.0
80.28,75.0
80.29,75.0
80.3,76.0
80.31,98.0
80.32,84.0
80.33,92.0
80.34,90.0
80.35,109.0
80.36,75.0
80.37,92.0
80.38,82.0
80.39,69.0
80.4,65.0
80.41,93.0
80.42,82.0
80.43,98.0
80.44,83.0
80.45,94.0
80.46,80.0
80.47,81.0
80.48,111.0
80.49,88.0
80.5,84.0
80.51,66.0
80.52,91.0
80.53,86.0
80.54,96.0
80.55,90.0
80.56,88.0
80.57,79.0
80.58,93.0
80.59,92.0
80.6,74.0
80.61,84.0
80.62,83.0
80.63,81.0
80.64,84.0
80.65,85.0
80.66,96.0
80.67,84.0
80.68,95.0
80.69,81.0
80.7,89.0
80.71,89.0
80.72,87.0
80.73,87.0
80.74,84.0
80.75,80.0
80.76,93.0
80.77,96.0
80.78,97.0
80.79,104.0
80.8,87.0
80.81,79.0
80.82,88.0
80.83,94.0
80.84,80.0
80.85,87.0
80.86,92.0
80.87,91.0
80.88,96.0
80.89,72.0
80.9,95.0
80.91,89.0
80.92,91.0
80.93,97.0
80.94,87.0
80.95,98.0
80.96,84.0
80.97,95.0
80.98,90.0
80.99,96.0
81.0,82.0
81.01,88.0
81.02,77.0
81.03,96.0
81.04,76.0
81.05,104.0
81.06,75.0
81.07,88.0
81.08,92.0
81.09,81.0
81.1,95.0
81.11,91.0
81.12,108.0
81.13,105.0
81.14,95.0
81.15,91.0
81.16,91.0
81.17,90.0
81.18,83.0
81.19,108.0
81.2,79.0
81.21,94.0
81.22,98.0
81.23,79.0
81.24,73.0
81.25,92.0
81.26,88.0
81.27,85.0
81.28,88.0
81.29,85.0
81.3,91.0
81.31,102.0
81.32,96.0
81.33,98.0
81.34,78.0
81.35,105.0
81.36,96.0
81.37,88.0
81.38,81.0
81.39,100.0
81.4,108.0
81.41,114.0
81.42,94.0
81.43,73.0
81.44,89.0
81.45,89.0
81.46,65.0
81.47,99.0
81.48,81.0
81.49,77.0
81.5,92.0
81.51,78.0
81.52,105.0
81.53,96.0
81.54,101.0
81.55,100.0
81.56,91.0
81.57,104.0
81.58,98.0
81.59,77.0
81.6,85.0
81.61,85.0
81.62,76.0
81.63,92.0
81.64,108.0
81.65,94.0
81.66,93.0
81.67,83.0
81.68,85.0
81.69,100.0
81.7,77.0
81.71,76.0
81.72,87.0
81.73,83.0
81.74,102.0
81.75,87.0
81.76,86.0
81.77,92.0
81.78,86.0
81.79,83.0
81.8,89.0
81.81,91.0
81.82,86.0
81.83,86.0
81.84,96.0
81.85,85.0
81.86,94.0
81.87,89.0
81.88,95.0
81.89,94.0
81.9,87.0
81.91,95.0
81.92,83.0
81.93,83.0
81.94,86.0
81.95,93.0
81.96,79.0
81.97,90.0
81.98,84.0
81.99,83.0
82.0,89.0
82.01,86.0
82.02,88.0
82.03,82.0
82.04,94.0
82.05,83.0
82.06,90.0
82.07,95.0
82.08,85.0
82.09,90.0
82.1,96.0
82.11,82.0
82.12,81.0
82.13,97.0
82.14,93.0
82.15,85.0
82.16,96.0
82.17,105.0
82.18,86.0
82.19,82.0
82.2,91.0
82.21,85.0
82.22,78.0
82.23,68.0
82.24,101.0
82.25,85.0
82.26,84.0
82.27,79.0
82.28,107.0
82.29,92.0
82.3,97.0
82.31,68.0
82.32,80.0
82.33,77.0
82.34,81.0
82.35,79.0
82.36,98.0
82.37,84.0
82.38,78.0
82.39,105.0
82.4,86.0
82.41,104.0
82.42,86.0
82.43,84.0
82.44,101.0
82.45,104.0
82.46,81.0
82.47,91.0
82.48,101.0
82.49,103.0
82.5,87.0
82.51,90.0
82.52,87.0
82.53,102.0
82.54,82.0
82.55,97.0
82.56,90.0
82.57,68.0
82.58,83.0
82.59,98.0
82.6,94.0
82.61,78.0
82.62,92.0
82.63,97.0
82.64,88.0
82.65,78.0
82.66,83.0
82.67,86.0
82.68,93.0
82.69,98.0
82.7,87.0
82.71,99.0
82.72,85.0
82.73,81.0
82.74,101.0
82.75,90.0
82.76,91.0
82.77,73.0
82.78,87.0
82.79,77.0
82.8,95.0
82.81,85.0
82.82,79.0
82.83,89.0
82.84,94.0
82.85,104.0
82.86,86.0
82.87,83.0
82.88,91.0
82.89,77.0
82.9,97.0
82.91,93.0
82.92,84.0
82.93,99.0
82.94,83.0
82.95,77.0
82.96,104.0
82.97,91.0
82.98,103.0
82.99,98.0
83.0,110.0
83.01,95.0
83.02,112.0
83.03,102.0
83.04,92.0
83.05,85.0
83.06,93.0
83.07,102.0
83.08,95.0
83.09,103.0
83.1,98.0
83.11,89.0
83.12,107.0
83.13,91.0
83.14,85.0
83.15,90.0
83.16,89.0
83.17,107.0
83.18,104.0
83.19,80.0
83.2,88.0
83.21,94.0
83.22,108.0
83.23,98.0
83.24,94.0
83.25,90.0
83.26,113.0
83.27,113.0
83.28,99.0
83.29,91.0
83.3,95.0
83.31,85.0
83.32,90.0
83.33,83.0
83.34,98.0
83.35,85.0
83.36,87.0
83.37,81.0
83.38,86.0
83.39,88.0
83.4,91.0
83.41,84.0
83.42,93.0
83.43,92.0
83.44,89.0
83.45,101.0
83.46,97.0
83.47,78.0
83.48,67.0
83.49,107.0
83.5,102.0
83.51,86.0
83.52,112.0
83.53,108.0
83.54,87.0
83.55,99.0
83.56,89.0
83.57,92.0
83.58,98.0
83.59,106.0
83.6,88.0
83.61,85.0
83.62,82.0
83.63,84.0
83.64,86.0
83.65,86.0
83.66,80.0
83.67,102.0
83.68,106.0
83.69,92.0
83.7,79.0
83.71,81.0
83.72,78.0
83.73,93.0
83.74,70.0
83.75,90.0
83.76,94.0
83.77,90.0
83.78,81.0
83.79,75.0
83.8,82.0
83.81,81.0
83.82,92.0
83.83,86.0
83.84,87.0
83.85,84.0
83.86,83.0
83.87,104.0
83.88,90.0
83.89,75.0
83.9,96.0
83.91,90.0
83.92,93.0
83.93,85.0
83.94,92.0
83.95,97.0
83.96,100.0
83.97,89.0
83.98,91.0
83.99,83.0
84.0,98.0
84.01,99.0
84.02,86.0
84.03,88.0
84.04,94.0
84.05,104.0
84.06,77.0
84.07,86.0
84.08,114.0
84.09,68.0
84.1,86.0
84.11,83.0
84.12,85.0
84.13,71.0
84.14,87.0
84.15,78.0
84.16,86.0
84.17,97.0
84.18,79.0
84.19,78.0
84.2,78.0
84.21,97.0
84.22,72.0
84.23,72.0
84.24,74.0
84.25,98.0
84.26,102.0
84.27,70.0
84.28,75.0
84.29,86.0
84.3,68.0
84.31,97.0
84.32,92.0
84.33,99.0
84.34,96.0
84.35,86.0
84.36,89.0
84.37,99.0
84.38,99.0
84.39,90.0
84.4,74.0
84.41,89.0
84.42,96.0
84.43,79.0
84.44,89.0
84.45,94.0
84.46,85.0
84.47,103.0
84.48,97.0
84.49,86.0
84.5,102.0
84.51,99.0
84.52,86.0
84.53,69.0
84.54,86.0
84.55,81.0
84.56,107.0
84.57,86.0
84.58,96.0
84.59,102.0
84.6,88.0
84.61,121.0
84.62,81.0
84.63,86.0
84.64,102.0
84.65,102.0
84.66,79.0
84.67,92.0
84.68,94.0
84.69,77.0
84.7,97.0
84.71,102.0
84.72,93.0
84.73,84.0
84.74,90.0
84.75,95.0
84.76,92.0
84.77,88.0
84.78,97.0
84.79,82.0
84.8,89.0
84.81,76.0
84.82,97.0
84.83,85.0
84.84,94.0
84.85,110.0
84.86,79.0
84.87,77.0
84.88,96.0
84.89,82.0
84.9,70.0
84.91,88.0
84.92,96.0
84.93,86.0
84.94,84.0
84.95,80.0
84.96,85.0
84.97,88.0
84.98,82.0
84.99,104.0
85.0,87.0
85.01,90.0
85.02,80.0
85.03,66.0
85.04,83.0
85.05,103.0
85.06,90.0
85.07,84.0
85.08,81.0
85.09,90.0
85.1,88.0
85.11,90.0
85.12,90.0
85.13,85.0
85.14,91.0
85.15,79.0
85.16,63.0
85.17,93.0
85.18,88.0
85.19,65.0
85.2,76.0
85.21,88.0
85.22,91.0
85.23,93.0
85.24,76.0
85.25,83.0
85.26,79.0
85.27,82.0
85.28,85.0
85.29,92.0
85.3,110.0
85.31,90.0
85.32,91.0
85.33,77.0
85.34,97.0
85.35,86.0
85.36,100.0
85.37,88.0
85.38,68.0
85.39,75.0
85.4,81.0
85.41,82.0
85.42,85.0
85.43,100.0
85.44,100.0
85.45,93.0
85.46,96.0
85.47,97.0
85.48,102.0
85.49,72.0
85.5,96.0
85.51,79.0
85.52,99.0
85.53,82.0
85.54,74.0
85.55,84.0
85.56,75.0
85.57,103.0
85.58,92.0
85.59,88.0
85.6,82.0
85.61,84.0
85.62,100.0
85.63,104.0
85.64,72.0
85.65,108.0
85.66,93.0
85.67,95.0
85.68,86.0
85.69,84.0
85.7,91.0
85.71,95.0
85.72,98.0
85.73,85.0
85.74,90.0
85.75,85.0
85.76,85.0
85.77,89.0
85.78,95.0
85.79,98.0
85.8,88.0
85.81,77.0
85.82,84.0
85.83,86.0
85.84,93.0
85.85,81.0
85.86,80.0
85.87,89.0
85.88,85.0
85.89,108.0
85.9,89.0
85.91,77.0
85.92,92.0
85.93,76.0
85.94,100.0
85.95,103.0
85.96,80.0
85.97,83.0
85.98,83.0
85.99,81.0
86.0,92.0
86.01,103.0
86.02,82.0
86.03,102.0
86.04,81.0
86.05,85.0
86.06,101.0
86.07,102.0
86.08,99.0
86.09,95.0
86.1,101.0
86.11,104.0
86.12,98.0
86.13,90.0
86.14,99.0
86.15,80.0
86.16,88.0
86.17,103.0
86.18,91.0
86.19,89.0
86.2,94.0
86.21,109.0
86.22,90.0
86.23,74.0
86.24,86.0
86.25,75.0
86.26,84.0
86.27,101.0
86.28,112.0
86.29,91.0
86.3,92.0
86.31,82.0
86.32,64.0
86.33,89.0
86.34,94.0
86.35,89.0
86.36,86.0
86.37,93.0
86.38,98.0
86.39,93.0
86.4,88.0
86.41,107.0
86.42,100.0
86.43,78.0
86.44,89.0
86.45,78.0
86.46,85.0
86.47,100.0
86.48,91.0
86.49,84.0
86.5,92.0
86.51,73.0
86.52,71.0
86.53,81.0
86.54,88.0
86.55,111.0
86.56,96.0
86.57,90.0
86.58,102.0
86.59,91.0
86.6,84.0
86.61,107.0
86.62,75.0
86.63,88.0
86.64,74.0
86.65,82.0
86.66,89.0
86.67,79.0
86.68,95.0
86.69,81.0
86.7,78.0
86.71,84.0
86.72,85.0
86.73,87.0
86.74,81.0
86.75,97.0
86.76,89.0
86.77,77.0
86.78,94.0
86.79,78.0
86.8,100.0
86.81,87.0
86.82,89.0
86.83,106.0
86.84,81.0
86.85,94.0
86.86,90.0
86.87,85.0
86.88,89.0
86.89,109.0
86.9,99.0
86.91,70.0
86.92,79.0
86.93,113.0
86.94,89.0
86.95,91.0
86.96,105.0
86.97,85.0
86.98,83.0
86.99,79.0
87.0,98.0
87.01,89.0
87.02,99.0
87.03,75.0
87.04,75.0
87.05,84.0
87.06,97.0
87.07,74.0
87.08,94.0
87.09,90.0
87.1,90.0
87.11,75.0
87.12,95.0
87.13,95.0
87.14,107.0
87.15,81.0
87.16,90.0
87.17,81.0
87.18,85.0
87.19,89.0
87.2,85.0
87.21,85.0
87.22,95.0
87.23,65.0
87.24,104.0
87.25,96.0
87.26,81.0
87.27,98.0
87.28,93.0
87.29,91.0
87.3,108.0
87.31,81.0
87.32,73.0
87.33,94.0
87.34,87.0
87.35,92.0
87.36,80.0
87.37,110.0
87.38,96.0
87.39,76.0
87.4,83.0
87.41,96.0
87.42,89.0
87.43,98.0
87.44,103.0
87.45,92.0
87.46,89.0
87.47,84.0
87.48,95.0
87.49,89.0
87.5,92.0
87.51,92.0
87.52,93.0
87.53,89.0
87.54,96.0
87.55,94.0
87.56,88.0
87.57,81.0
87.58,105.0
87.59,90.0
87.6,103.0
87.61,96.0
87.62,94.0
87.63,110.0
87.64,93.0
87.65,87.0
87.66,88.0
87.67,80.0
87.68,80.0
87.69,95.0
87.7,91.0
87.71,100.0
87.72,92.0
87.73,99.0
87.74,94.0
87.75,98.0
87.76,82.0
87.77,83.0
87.78,85.0
87.79,99.0
87.8,84.0
87.81,87.0
87.82,92.0
87.83,97.0
87.84,72.0
87.85,83.0
87.86,88.0
87.87,81.0
87.88,84.0
87.89,81.0
87.9,89.0
87.91,85.0
87.92,74.0
87.93,85.0
87.94,101.0
87.95,82.0
87.96,73.0
87.97,90.0
87.98,75.0
87.99,105.0
88.0,93.0
88.01,68.0
88.02,99.0
88.03,78.0
88.04,84.0
88.05,77.0
88.06,84.0
88.07,86.0
88.08,90.0
88.09,86.0
88.1,88.0
88.11,94.0
88.12,76.0
88.13,88.0
88.14,103.0
88.15,90.0
88.16,86.0
88.17,77.0
88.18,86.0
88.19,92.0
88.2,97.0
88.21,87.0
88.22,82.0
88.23,83.0
88.24,90.0
88.25,90.0
88.26,92.0
88.27,80.0
88.28,97.0
88.29,88.0
88.3,85.0
88.31,88.0
88.32,93.0
88.33,90.0
88.34,85.0
88.35,92.0
88.36,69.0
88.37,90.0
88.38,93.0
88.39,85.0
88.4,103.0
88.41,91.0
88.42,97.0
88.43,95.0
88.44,95.0
88.45,94.0
88.46,87.0
88.47,83.0
88.48,96.0
88.49,78.0
88.5,84.0
88.51,64.0
88.52,92.0
88.53,87.0
88.54,93.0
88.55,76.0
88.56,81.0
88.57,88.0
88.58,85.0
88.59,86.0
88.6,93.0
88.61,79.0
88.62,82.0
88.63,105.0
88.64,84.0
88.65,82.0
88.66,96.0
88.67,77.0
88.68,86.0
88.69,72.0
88.7,74.0
88.71,76.0
88.72,97.0
88.73,103.0
88.74,85.0
88.75,75.0
88.76,93.0
88.77,78.0
88.78,96.0
88.79,93.0
88.8,86.0
88.81,90.0
88.82,85.0
88.83,78.0
88.84,85.0
88.85,76.0
88.86,99.0
88.87,84.0
88.88,87.0
88.89,100.0
88.9,88.0
88.91,103.0
88.92,87.0
88.93,79.0
88.94,90.0
88.95,90.0
88.96,81.0
88.97,86.0
88.98,102.0
88.99,82.0
89.0,88.0
89.01,94.0
89.02,90.0
89.03,97.0
89.04,80.0
89.05,79.0
89.06,78.0
89.07,86.0
89.08,89.0
89.09,98.0
89.1,99.0
89.11,99.0
89.12,92.0
89.13,84.0
89.14,92.0
89.15,71.0
89.16,78.0
89.17,93.0
89.18,97.0
89.19,105.0
89.2,87.0
89.21,105.0
89.22,104.0
89.23,110.0
89.24,95.0
89.25,99.0
89.26,104.0
89.27,91.0
89.28,98.0
89.29,99.0
89.3,93.0
89.31,92.0
89.32,119.0
89.33,91.0
89.34,81.0
89.35,78.0
89.36,80.0
89.37,89.0
89.38,105.0
89.39,97.0
89.4,87.0
89.41,89.0
89.42,84.0
89.43,114.0
89.44,72.0
89.45,90.0
89.46,94.0
89.47,83.0
89.48,86.0
89.49,116.0
89.5,99.0
89.51,108.0
89.52,95.0
89.53,72.0
89.54,89.0
89.55,73.0
89.56,99.0
89.57,80.0
89.58,81.0
89.59,100.0
89.6,83.0
89.61,83.0
89.62,86.0
89.63,89.0
89.64,84.0
89.65,90.0
89.66,88.0
89.67,93.0
89.68,78.0
89.69,85.0
89.7,90.0
89.71,84.0
89.72,98.0
89.73,90.0
89.74,82.0
89.75,98.0
89.76,65.0
89.77,87.0
89.78,90.0
89.79,94.0
89.8,86.0
89.81,80.0
89.82,89.0
89.83,97.0
89.84,101.0
89.85,89.0
89.86,91.0
89.87,102.0
89.88,88.0
89.89,81.0
89.9,84.0
89.91,90.0
89.92,81.0
89.93,88.0
89.94,89.0
89.95,77.0
89.96,79.0
89.97,86.0
89.98,89.0
89.99,102.0
90.0,77.0
