angle,intensity
5.0,42.0
5.01,46.0
5.02,54.0
5.03,47.0
5.04,46.0
5.05,39.0
5.06,55.0
5.07,52.0
5.08,48.0
5.09,52.0
5.1,40.0
5.11,61.0
5.12,51.0
5.13,55.0
5.14,52.0
5.15,49.0
5.16,61.0
5.17,56.0
5.18,55.0
5.19,55.0
5.2,38.0
5.21,47.0
5.22,57.0
5.23,53.0
5.24,65.0
5.25,65.0
5.26,55.0
5.27,57.0
5.28,51.0
5.29,53.0
5.3,54.0
5.31,42.0
5.32,60.0
5.33,55.0
5.34,70.0
5.35,54.0
5.36,56.0
5.37,45.0
5.38,68.0
5.39,69.0
5.4,54.0
5.41,51.0
5.42,62.0
5.43,65.0
5.44,54.0
5.45,65.0
5.46,55.0
5.47,51.0
5.48,62.0
5.49,60.0
5.5,68.0
5.51,54.0
5.52,76.0
5.53,72.0
5.54,64.0
5.55,70.0
5.56,71.0
5.57,52.0
5.58,69.0
5.59,70.0
5.6,64.0
5.61,46.0
5.62,61.0
5.63,70.0
5.64,65.0
5.65,62.0
5.66,69.0
5.67,58.0
5.68,61.0
5.69,68.0
5.7,57.0
5.71,59.0
5.72,68.0
5.73,65.0
5.74,72.0
5.75,51.0
5.76,65.0
5.77,71.0
5.78,55.0
5.79,65.0
5.8,62.0
5.81,67.0
5.82,74.0
5.83,68.0
5.84,71.0
5.85,56.0
5.86,73.0
5.87,62.0
5.88,59.0
5.89,46.0
5.9,62.0
5.91,66.0
5.92,69.0
5.93,54.0
5.94,62.0
5.95,68.0
5.96,56.0
5.97,79.0
5.98,68.0
5.99,63.0
6.0,61.0
6.01,56.0
6.02,70.0
6.03,53.0
6.04,66.0
6.05,52.0
6.06,57.0
6.07,64.0
6.08,55.0
6.09,75.0
6.1,65.0
6.11,76.0
6.12,57.0
6.13,60.0
6.14,56.0
6.15,60.0
6.16,56.0
6.17,49.0
6.18,59.0
6.19,61.0
6.2,61.0
6.21,62.0
6.22,56.0
6.23,54.0
6.24,72.0
6.25,70.0
6.26,51.0
6.27,51.0
6.28,47.0
6.29,52.0
6.3,65.0
6.31,60.0
6.32,48.0
6.33,55.0
6.34,46.0
6.35,61.0
6.36,40.0
6.37,59.0
6.38,57.0
6.39,62.0
6.4,55.0
6.41,44.0
6.42,51.0
6.43,46.0
6.44,57.0
6.45,41.0
6.46,54.0
6.47,53.0
6.48,48.0
6.49,59.0
6.5,59.0
6.51,56.0
6.52,46.0
6.53,64.0
6.54,44.0
6.55,43.0
6.56,56.0
6.57,53.0
6.58,56.0
6.59,50.0
6.6,51.0
6.61,48.0
6.62,60.0
6.63,64.0
6.64,51.0
6.65,41.0
6.66,63.0
6.67,58.0
6.68,40.0
6.69,65.0
6.7,46.0
6.71,62.0
6.72,42.0
6.73,43.0
6.74,49.0
6.75,46.0
6.76,50.0
6.77,48.0
6.78,42.0
6.79,61.0
6.8,47.0
6.81,61.0
6.82,67.0
6.83,43.0
6.84,43.0
6.85,64.0
6.86,47.0
6.87,50.0
6.88,62.0
6.89,65.0
6.9,50.0
6.91,60.0
6.92,57.0
6.93,38.0
6.94,48.0
6.95,40.0
6.96,49.0
6.97,71.0
6.98,56.0
6.99,53.0
7.0,48.0
7.01,47.0
7.02,54.0
7.03,55.0
7.04,56.0
7.05,54.0
7.06,55.0
7.07,53.0
7.08,53.0
7.09,46.0
7.1,60.0
7.11,40.0
7.12,71.0
7.13,58.0
7.14,60.0
7.15,53.0
7.16,45.0
7.17,80.0
7.18,55.0
7.19,59.0
7.2,48.0
7.21,49.0
7.22,55.0
7.23,48.0
7.24,56.0
7.25,55.0
7.26,53.0
7.27,61.0
7.28,59.0
7.29,54.0
7.3,62.0
7.31,46.0
7.32,45.0
7.33,55.0
7.34,58.0
7.35,48.0
7.36,47.0
7.37,51.0
7.38,58.0
7.39,48.0
7.4,63.0
7.41,46.0
7.42,52.0
7.43,59.0
7.44,50.0
7.45,51.0
7.46,51.0
7.47,55.0
7.48,64.0
7.49,57.0
7.5,62.0
7.51,63.0
7.52,48.0
7.53,56.0
7.54,54.0
7.55,52.0
7.56,54.0
7.57,66.0
7.58,52.0
7.59,58.0
7.6,55.0
7.61,65.0
7.62,54.0
7.63,67.0
7.64,66.0
7.65,56.0
7.66,50.0
7.67,53.0
7.68,63.0
7.69,63.0
7.7,53.0
7.71,61.0
7.72,63.0
7.73,65.0
7.74,59.0
7.75,52.0
7.76,45.0
7.77,47.0
7.78,58.0
7.79,64.0
7.8,59.0
7.81,54.0
7.82,66.0
7.83,45.0
7.84,47.0
7.85,62.0
7.86,60.0
7.87,50.0
7.88,48.0
7.89,52.0
7.9,57.0
7.91,49.0
7.92,54.0
7.93,44.0
7.94,61.0
7.95,52.0
7.96,62.0
7.97,59.0
7.98,38.0
7.99,63.0
8.0,53.0
8.01,55.0
8.02,63.0
8.03,63.0
8.04,49.0
8.05,46.0
8.06,49.0
8.07,56.0
8.08,49.0
8.09,41.0
8.1,51.0
8.11,50.0
8.12,61.0
8.13,53.0
8.14,45.0
8.15,47.0
8.16,53.0
8.17,56.0
8.18,57.0
8.19,65.0
8.2,57.0
8.21,51.0
8.22,45.0
8.23,49.0
8.24,38.0
8.25,56.0
8.26,50.0
8.27,46.0
8.28,51.0
8.29,47.0
8.3,47.0
8.31,44.0
8.32,53.0
8.33,78.0
8.34,50.0
8.35,47.0
8.36,47.0
8.37,48.0
8.38,55.0
8.39,68.0
8.4,61.0
8.41,48.0
8.42,57.0
8.43,63.0
8.44,53.0
8.45,56.0
8.46,49.0
8.47,42.0
8.48,63.0
8.49,46.0
8.5,51.0
8.51,56.0
8.52,50.0
8.53,43.0
8.54,65.0
8.55,53.0
8.56,38.0
8.57,42.0
8.58,48.0
8.59,51.0
8.6,64.0
8.61,62.0
8.62,45.0
8.63,53.0
8.64,50.0
8.65,64.0
8.66,49.0
8.67,40.0
8.68,55.0
8.69,38.0
8.7,55.0
8.71,49.0
8.72,64.0
8.73,53.0
8.74,58.0
8.75,54.0
8.76,50.0
8.77,34.0
8.78,62.0
8.79,50.0
8.8,44.0
8.81,55.0
8.82,61.0
8.83,39.0
8.84,70.0
8.85,55.0
8.86,53.0
8.87,51.0
8.88,54.0
8.89,56.0
8.9,48.0
8.91,46.0
8.92,50.0
8.93,58.0
8.94,53.0
8.95,46.0
8.96,58.0
8.97,44.0
8.98,49.0
8.99,55.0
9.0,65.0
9.01,47.0
9.02,38.0
9.03,52.0
9.04,60.0
9.05,42.0
9.06,41.0
9.07,46.0
9.08,55.0
9.09,55.0
9.1,43.0
9.11,58.0
9.12,68.0
9.13,57.0
9.14,36.0
9.15,48.0
9.16,60.0
9.17,46.0
9.18,42.0
9.19,59.0
9.2,51.0
9.21,66.0
9.22,50.0
9.23,51.0
9.24,46.0
9.25,42.0
9.26,49.0
9.27,42.0
9.28,56.0
9.29,63.0
9.3,55.0
9.31,51.0
9.32,47.0
9.33,53.0
9.34,50.0
9.35,59.0
9.36,46.0
9.37,50.0
9.38,64.0
9.39,50.0
9.4,48.0
9.41,45.0
9.42,50.0
9.43,58.0
9.44,66.0
9.45,48.0
9.46,50.0
9.47,45.0
9.48,65.0
9.49,51.0
9.5,44.0
9.51,43.0
9.52,41.0
9.53,53.0
9.54,53.0
9.55,42.0
9.56,47.0
9.57,51.0
9.58,51.0
9.59,65.0
9.6,48.0
9.61,60.0
9.62,64.0
9.63,45.0
9.64,64.0
9.65,51.0
9.66,41.0
9.67,60.0
9.68,44.0
9.69,49.0
9.7,53.0
9.71,56.0
9.72,55.0
9.73,39.0
9.74,59.0
9.75,34.0
9.76,42.0
9.77,49.0
9.78,57.0
9.79,52.0
9.8,55.0
9.81,56.0
9.82,48.0
9.83,58.0
9.84,62.0
9.85,59.0
9.86,52.0
9.87,57.0
9.88,45.0
9.89,37.0
9.9,45.0
9.91,46.0
9.92,50.0
9.93,64.0
9.94,52.0
9.95,50.0
9.96,51.0
9.97,48.0
9.98,51.0
9.99,59.0
10.0,70.0
10.01,55.0
10.02,51.0
10.03,50.0
10.04,57.0
10.05,51.0
10.06,65.0
10.07,46.0
10.08,44.0
10.09,50.0
10.1,53.0
10.11,50.0
10.12,41.0
10.13,40.0
10.14,43.0
10.15,54.0
10.16,39.0
10.17,43.0
10.18,50.0
10.19,51.0
10.2,54.0
10.21,36.0
10.22,55.0
10.23,51.0
10.24,63.0
10.25,44.0
10.26,48.0
10.27,58.0
10.28,60.0
10.29,41.0
10.3,55.0
10.31,43.0
10.32,54.0
10.33,44.0
10.34,47.0
10.35,58.0
10.36,55.0
10.37,44.0
10.38,34.0
10.39,43.0
10.4,47.0
10.41,62.0
10.42,53.0
10.43,54.0
10.44,45.0
10.45,57.0
10.46,47.0
10.47,46.0
10.48,47.0
10.49,51.0
10.5,54.0
10.51,50.0
10.52,39.0
10.53,50.0
10.54,46.0
10.55,45.0
10.56,41.0
10.57,46.0
10.58,46.0
10.59,58.0
10.6,53.0
10.61,38.0
10.62,44.0
10.63,42.0
10.64,54.0
10.65,43.0
10.66,50.0
10.67,37.0
10.68,43.0
10.69,51.0
10.7,62.0
10.71,58.0
10.72,51.0
10.73,50.0
10.74,59.0
10.75,44.0
10.76,44.0
10.77,50.0
10.78,63.0
10.79,48.0
10.8,34.0
10.81,53.0
10.82,48.0
10.83,63.0
10.84,56.0
10.85,45.0
10.86,58.0
10.87,57.0
10.88,65.0
10.89,63.0
10.9,49.0
10.91,46.0
10.92,61.0
10.93,51.0
10.94,51.0
10.95,46.0
10.96,56.0
10.97,46.0
10.98,47.0
10.99,61.0
11.0,63.0
11.01,52.0
11.02,61.0
11.03,42.0
11.04,45.0
11.05,45.0
11.06,52.0
11.07,53.0
11.08,53.0
11.09,63.0
11.1,43.0
11.11,52.0
11.12,50.0
11.13,61.0
11.14,45.0
11.15,44.0
11.16,58.0
11.17,55.0
11.18,50.0
11.19,54.0
11.2,46.0
11.21,59.0
11.22,60.0
11.23,58.0
11.24,47.0
11.25,49.0
11.26,66.0
11.27,61.0
11.28,54.0
11.29,45.0
11.3,44.0
11.31,61.0
11.32,56.0
11.33,45.0
11.34,58.0
11.35,62.0
11.36,62.0
11.37,56.0
11.38,53.0
11.39,66.0
11.4,47.0
11.41,54.0
11.42,61.0
11.43,59.0
11.44,48.0
11.45,64.0
11.46,45.0
11.47,60.0
11.48,59.0
11.49,63.0
11.5,53.0
11.51,42.0
11.52,48.0
11.53,51.0
11.54,54.0
11.55,59.0
11.56,53.0
11.57,44.0
11.58,53.0
11.59,63.0
11.6,63.0
11.61,52.0
11.62,48.0
11.63,59.0
11.64,59.0
11.65,62.0
11.66,52.0
11.67,62.0
11.68,54.0
11.69,44.0
11.7,40.0
11.71,40.0
11.72,48.0
11.73,43.0
11.74,46.0
11.75,45.0
11.76,42.0
11.77,50.0
11.78,56.0
11.79,57.0
11.8,63.0
11.81,56.0
11.82,54.0
11.83,58.0
11.84,56.0
11.85,61.0
11.86,52.0
11.87,71.0
11.88,73.0
11.89,52.0
11.9,53.0
11.91,66.0
11.92,44.0
11.93,68.0
11.94,50.0
11.95,53.0
11.96,52.0
11.97,55.0
11.98,59.0
11.99,44.0
12.0,46.0
12.01,36.0
12.02,46.0
12.03,43.0
12.04,51.0
12.05,57.0
12.06,58.0
12.07,53.0
12.08,64.0
12.09,61.0
12.1,59.0
12.11,64.0
12.12,47.0
12.13,45.0
12.14,48.0
12.15,49.0
12.16,60.0
12.17,58.0
12.18,51.0
12.19,61.0
12.2,52.0
12.21,62.0
12.22,53.0
12.23,48.0
12.24,55.0
12.25,61.0
12.26,58.0
12.27,51.0
12.28,64.0
12.29,58.0
12.3,51.0
12.31,44.0
12.32,65.0
12.33,47.0
12.34,60.0
12.35,51.0
12.36,54.0
12.37,58.0
12.38,65.0
12.39,51.0
12.4,61.0
12.41,55.0
12.42,61.0
12.43,51.0
12.44,62.0
12.45,58.0
12.46,50.0
12.47,57.0
12.48,55.0
12.49,47.0
12.5,65.0
12.51,48.0
12.52,52.0
12.53,54.0
12.54,50.0
12.55,53.0
12.56,59.0
12.57,35.0
12.58,51.0
12.59,39.0
12.6,56.0
12.61,63.0
12.62,48.0
12.63,55.0
12.64,58.0
12.65,50.0
12.66,49.0
12.67,48.0
12.68,58.0
12.69,57.0
12.7,56.0
12.71,63.0
12.72,52.0
12.73,52.0
12.74,66.0
12.75,58.0
12.76,48.0
12.77,40.0
12.78,48.0
12.79,58.0
12.8,69.0
12.81,48.0
12.82,56.0
12.83,42.0
12.84,60.0
12.85,51.0
12.86,55.0
12.87,52.0
12.88,60.0
12.89,49.0
12.9,58.0
12.91,50.0
12.92,43.0
12.93,52.0
12.94,62.0
12.95,51.0
12.96,39.0
12.97,56.0
12.98,46.0
12.99,57.0
13.0,59.0
13.01,55.0
13.02,46.0
13.03,53.0
13.04,52.0
13.05,55.0
13.06,52.0
13.07,64.0
13.08,52.0
13.09,50.0
13.1,54.0
13.11,46.0
13.12,49.0
13.13,55.0
13.14,61.0
13.15,46.0
13.16,57.0
13.17,53.0
13.18,28.0
13.19,51.0
13.2,48.0
13.21,45.0
13.22,42.0
13.23,51.0
13.24,48.0
13.25,57.0
13.26,44.0
13.27,52.0
13.28,59.0
13.29,66.0
13.3,62.0
13.31,67.0
13.32,61.0
13.33,50.0
13.34,57.0
13.35,50.0
13.36,61.0
13.37,47.0
13.38,55.0
13.39,48.0
13.4,61.0
13.41,58.0
13.42,57.0
13.43,64.0
13.44,50.0
13.45,52.0
13.46,44.0
13.47,79.0
13.48,47.0
13.49,56.0
13.5,55.0
13.51,62.0
13.52,52.0
13.53,70.0
13.54,67.0
13.55,65.0
13.56,37.0
13.57,54.0
13.58,49.0
13.59,51.0
13.6,48.0
13.61,69.0
13.62,49.0
13.63,53.0
13.64,55.0
13.65,55.0
13.66,51.0
13.67,52.0
13.68,52.0
13.69,59.0
13.7,37.0
13.71,46.0
13.72,59.0
13.73,53.0
13.74,51.0
13.75,75.0
13.76,44.0
13.77,50.0
13.78,42.0
13.79,49.0
13.8,49.0
13.81,62.0
13.82,56.0
13.83,69.0
13.84,56.0
13.85,47.0
13.86,54.0
13.87,53.0
13.88,56.0
13.89,52.0
13.9,57.0
13.91,47.0
13.92,49.0
13.93,49.0
13.94,59.0
13.95,53.0
13.96,54.0
13.97,46.0
13.98,54.0
13.99,56.0
14.0,72.0
14.01,49.0
14.02,46.0
14.03,59.0
14.04,56.0
14.05,54.0
14.06,49.0
14.07,71.0
14.08,49.0
14.09,47.0
14.1,58.0
14.11,47.0
14.12,55.0
14.13,53.0
14.14,61.0
14.15,52.0
14.16,48.0
14.17,55.0
14.18,50.0
14.19,48.0
14.2,59.0
14.21,52.0
14.22,50.0
14.23,53.0
14.24,44.0
14.25,50.0
14.26,62.0
14.27,72.0
14.28,46.0
14.29,56.0
14.3,56.0
14.31,54.0
14.32,54.0
14.33,48.0
14.34,37.0
14.35,59.0
14.36,55.0
14.37,52.0
14.38,65.0
14.39,56.0
14.4,66.0
14.41,55.0
14.42,46.0
14.43,45.0
14.44,58.0
14.45,59.0
14.46,60.0
14.47,49.0
14.48,46.0
14.49,45.0
14.5,62.0
14.51,54.0
14.52,54.0
14.53,53.0
14.54,53.0
14.55,41.0
14.56,50.0
14.57,62.0
14.58,53.0
14.59,36.0
14.6,65.0
14.61,57.0
14.62,51.0
14.63,40.0
14.64,47.0
14.65,49.0
14.66,50.0
14.67,52.0
14.68,59.0
14.69,49.0
14.7,53.0
14.71,55.0
14.72,59.0
14.73,56.0
14.74,42.0
14.75,54.0
14.76,57.0
14.77,48.0
14.78,51.0
14.79,64.0
14.8,57.0
14.81,70.0
14.82,53.0
14.83,46.0
14.84,65.0
14.85,49.0
14.86,62.0
14.87,62.0
14.88,63.0
14.89,47.0
14.9,50.0
14.91,49.0
14.92,59.0
14.93,62.0
14.94,58.0
14.95,62.0
14.96,57.0
14.97,55.0
14.98,46.0
14.99,54.0
15.0,54.0
15.01,70.0
15.02,49.0
15.03,43.0
15.04,58.0
15.05,52.0
15.06,54.0
15.07,48.0
15.08,53.0
15.09,58.0
15.1,50.0
15.11,57.0
15.12,51.0
15.13,52.0
15.14,62.0
15.15,54.0
15.16,61.0
15.17,52.0
15.18,50.0
15.19,58.0
15.2,53.0
15.21,54.0
15.22,55.0
15.23,47.0
15.24,50.0
15.25,59.0
15.26,57.0
15.27,52.0
15.28,52.0
15.29,52.0
15.3,63.0
15.31,53.0
15.32,62.0
15.33,41.0
15.34,47.0
15.35,51.0
15.36,52.0
15.37,61.0
15.38,55.0
15.39,43.0
15.4,41.0
15.41,59.0
15.42,42.0
15.43,51.0
15.44,63.0
15.45,60.0
15.46,58.0
15.47,58.0
15.48,55.0
15.49,51.0
15.5,50.0
15.51,46.0
15.52,60.0
15.53,59.0
15.54,69.0
15.55,55.0
15.56,44.0
15.57,40.0
15.58,48.0
15.59,61.0
15.6,49.0
15.61,69.0
15.62,71.0
15.63,52.0
15.64,60.0
15.65,42.0
15.66,65.0
15.67,54.0
15.68,56.0
15.69,70.0
15.7,55.0
15.71,48.0
15.72,47.0
15.73,56.0
15.74,57.0
15.75,55.0
15.76,62.0
15.77,53.0
15.78,52.0
15.79,55.0
15.8,53.0
15.81,55.0
15.82,57.0
15.83,52.0
15.84,56.0
15.85,60.0
15.86,56.0
15.87,60.0
15.88,55.0
15.89,55.0
15.9,50.0
15.91,44.0
15.92,59.0
15.93,70.0
15.94,47.0
15.95,40.0
15.96,55.0
15.97,57.0
15.98,59.0
15.99,49.0
16.0,53.0
16.01,59.0
16.02,49.0
16.03,45.0
16.04,49.0
16.05,62.0
16.06,58.0
16.07,52.0
16.08,63.0
16.09,49.0
16.1,75.0
16.11,57.0
16.12,40.0
16.13,54.0
16.14,45.0
16.15,51.0
16.16,55.0
16.17,60.0
16.18,63.0
16.19,52.0
16.2,57.0
16.21,57.0
16.22,62.0
16.23,68.0
16.24,41.0
16.25,55.0
16.26,57.0
16.27,47.0
16.28,56.0
16.29,69.0
16.3,60.0
16.31,62.0
16.32,58.0
16.33,55.0
16.34,51.0
16.35,46.0
16.36,64.0
16.37,65.0
16.38,56.0
16.39,51.0
16.4,59.0
16.41,53.0
16.42,70.0
16.43,43.0
16.44,66.0
16.45,68.0
16.46,37.0
16.47,54.0
16.48,56.0
16.49,47.0
16.5,58.0
16.51,54.0
16.52,47.0
16.53,54.0
16.54,52.0
16.55,52.0
16.56,50.0
16.57,48.0
16.58,54.0
16.59,52.0
16.6,70.0
16.61,60.0
16.62,51.0
16.63,62.0
16.64,40.0
16.65,54.0
16.66,63.0
16.67,58.0
16.68,41.0
16.69,62.0
16.7,55.0
16.71,72.0
16.72,68.0
16.73,64.0
16.74,77.0
16.75,42.0
16.76,54.0
16.77,49.0
16.78,52.0
16.79,43.0
16.8,55.0
16.81,54.0
16.82,51.0
16.83,59.0
16.84,56.0
16.85,64.0
16.86,48.0
16.87,54.0
16.88,53.0
16.89,54.0
16.9,52.0
16.91,57.0
16.92,58.0
16.93,59.0
16.94,60.0
16.95,47.0
16.96,47.0
16.97,50.0
16.98,50.0
16.99,51.0
17.0,59.0
17.01,51.0
17.02,46.0
17.03,71.0
17.04,55.0
17.05,55.0
17.06,60.0
17.07,64.0
17.08,46.0
17.09,60.0
17.1,47.0
17.11,54.0
17.12,46.0
17.13,66.0
17.14,50.0
17.15,63.0
17.16,58.0
17.17,49.0
17.18,49.0
17.19,51.0
17.2,63.0
17.21,56.0
17.22,57.0
17.23,66.0
17.24,56.0
17.25,54.0
17.26,77.0
17.27,54.0
17.28,65.0
17.29,52.0
17.3,51.0
17.31,66.0
17.32,57.0
17.33,48.0
17.34,43.0
17.35,62.0
17.36,59.0
17.37,47.0
17.38,63.0
17.39,49.0
17.4,56.0
17.41,53.0
17.42,50.0
17.43,64.0
17.44,52.0
17.45,62.0
17.46,58.0
17.47,65.0
17.48,61.0
17.49,57.0
17.5,64.0
17.51,41.0
17.52,69.0
17.53,67.0
17.54,53.0
17.55,52.0
17.56,61.0
17.57,71.0
17.58,46.0
17.59,59.0
17.6,50.0
17.61,63.0
17.62,58.0
17.63,52.0
17.64,50.0
17.65,45.0
17.66,52.0
17.67,48.0
17.68,61.0
17.69,50.0
17.7,58.0
17.71,61.0
17.72,60.0
17.73,65.0
17.74,59.0
17.75,60.0
17.76,61.0
17.77,52.0
17.78,63.0
17.79,57.0
17.8,56.0
17.81,49.0
17.82,63.0
17.83,60.0
17.84,58.0
17.85,63.0
17.86,49.0
17.87,55.0
17.88,52.0
17.89,47.0
17.9,64.0
17.91,43.0
17.92,62.0
17.93,54.0
17.94,49.0
17.95,52.0
17.96,57.0
17.97,59.0
17.98,56.0
17.99,48.0
18.0,53.0
18.01,56.0
18.02,45.0
18.03,44.0
18.04,73.0
18.05,52.0
18.06,63.0
18.07,48.0
18.08,56.0
18.09,73.0
18.1,69.0
18.11,57.0
18.12,62.0
18.13,41.0
18.14,59.0
18.15,45.0
18.16,58.0
18.17,53.0
18.18,59.0
18.19,41.0
18.2,65.0
18.21,63.0
18.22,52.0
18.23,70.0
18.24,60.0
18.25,55.0
18.26,57.0
18.27,63.0
18.28,63.0
18.29,61.0
18.3,55.0
18.31,58.0
18.32,51.0
18.33,42.0
18.34,62.0
18.35,60.0
18.36,62.0
18.37,63.0
18.38,58.0
18.39,51.0
18.4,58.0
18.41,58.0
18.42,52.0
18.43,52.0
18.44,57.0
18.45,62.0
18.46,75.0
18.47,61.0
18.48,65.0
18.49,49.0
18.5,61.0
18.51,47.0
18.52,50.0
18.53,69.0
18.54,53.0
18.55,67.0
18.56,52.0
18.57,58.0
18.58,70.0
18.59,73.0
18.6,60.0
18.61,67.0
18.62,62.0
18.63,57.0
18.64,53.0
18.65,51.0
18.66,59.0
18.67,49.0
18.68,58.0
18.69,54.0
18.7,62.0
18.71,49.0
18.72,51.0
18.73,62.0
18.74,72.0
18.75,44.0
18.76,68.0
18.77,65.0
18.78,52.0
18.79,59.0
18.8,58.0
18.81,81.0
18.82,55.0
18.83,52.0
18.84,59.0
18.85,57.0
18.86,48.0
18.87,69.0
18.88,59.0
18.89,54.0
18.9,62.0
18.91,56.0
18.92,49.0
18.93,59.0
18.94,62.0
18.95,56.0
18.96,67.0
18.97,58.0
18.98,44.0
18.99,62.0
19.0,57.0
19.01,55.0
19.02,53.0
19.03,50.0
19.04,63.0
19.05,60.0
19.06,50.0
19.07,49.0
19.08,68.0
19.09,68.0
19.1,63.0
19.11,68.0
19.12,56.0
19.13,61.0
19.14,61.0
19.15,58.0
19.16,59.0
19.17,52.0
19.18,55.0
19.19,57.0
19.2,65.0
19.21,55.0
19.22,62.0
19.23,51.0
19.24,75.0
19.25,47.0
19.26,55.0
19.27,70.0
19.28,66.0
19.29,63.0
19.3,60.0
19.31,49.0
19.32,65.0
19.33,59.0
19.34,46.0
19.35,51.0
19.36,59.0
19.37,58.0
19.38,50.0
19.39,53.0
19.4,62.0
19.41,70.0
19.42,64.0
19.43,56.0
19.44,59.0
19.45,56.0
19.46,68.0
19.47,55.0
19.48,68.0
19.49,49.0
19.5,49.0
19.51,55.0
19.52,62.0
19.53,68.0
19.54,64.0
19.55,63.0
19.56,54.0
19.57,56.0
19.58,69.0
19.59,50.0
19.6,57.0
19.61,68.0
19.62,49.0
19.63,52.0
19.64,63.0
19.65,63.0
19.66,55.0
19.67,57.0
19.68,50.0
19.69,52.0
19.7,64.0
19.71,50.0
19.72,59.0
19.73,57.0
19.74,68.0
19.75,56.0
19.76,53.0
19.77,58.0
19.78,58.0
19.79,65.0
19.8,54.0
19.81,55.0
19.82,58.0
19.83,53.0
19.84,60.0
19.85,78.0
19.86,61.0
19.87,57.0
19.88,60.0
19.89,59.0
19.9,62.0
19.91,58.0
19.92,65.0
19.93,75.0
19.94,63.0
19.95,55.0
19.96,60.0
19.97,47.0
19.98,55.0
19.99,63.0
20.0,70.0
20.01,55.0
20.02,55.0
20.03,57.0
20.04,62.0
20.05,67.0
20.06,55.0
20.07,60.0
20.08,65.0
20.09,61.0
20.1,64.0
20.11,65.0
20.12,63.0
20.13,56.0
20.14,68.0
20.15,51.0
20.16,53.0
20.17,70.0
20.18,62.0
20.19,54.0
20.2,53.0
20.21,60.0
20.22,63.0
20.23,54.0
20.24,69.0
20.25,70.0
20.26,62.0
20.27,57.0
20.28,53.0
20.29,46.0
20.3,60.0
20.31,69.0
20.32,66.0
20.33,74.0
20.34,60.0
20.35,48.0
20.36,61.0
20.37,48.0
20.38,75.0
20.39,56.0
20.4,54.0
20.41,64.0
20.42,48.0
20.43,59.0
20.44,68.0
20.45,66.0
20.46,77.0
20.47,67.0
20.48,65.0
20.49,53.0
20.5,55.0
20.51,57.0
20.52,58.0
20.53,64.0
20.54,52.0
20.55,54.0
20.56,62.0
20.57,65.0
20.58,56.0
20.59,60.0
20.6,54.0
20.61,55.0
20.62,74.0
20.63,58.0
20.64,56.0
20.65,71.0
20.66,65.0
20.67,82.0
20.68,57.0
20.69,68.0
20.7,52.0
20.71,54.0
20.72,68.0
20.73,65.0
20.74,69.0
20.75,45.0
20.76,66.0
20.77,56.0
20.78,60.0
20.79,64.0
20.8,52.0
20.81,61.0
20.82,62.0
20.83,66.0
20.84,58.0
20.85,50.0
20.86,57.0
20.87,59.0
20.88,68.0
20.89,60.0
20.9,58.0
20.91,57.0
20.92,65.0
20.93,49.0
20.94,65.0
20.95,50.0
20.96,55.0
20.97,73.0
20.98,50.0
20.99,47.0
21.0,57.0
21.01,43.0
21.02,65.0
21.03,68.0
21.04,62.0
21.05,55.0
21.06,40.0
21.07,64.0
21.08,70.0
21.09,65.0
21.1,53.0
21.11,62.0
21.12,60.0
21.13,68.0
21.14,61.0
21.15,64.0
21.16,63.0
21.17,64.0
21.18,75.0
21.19,84.0
21.2,68.0
21.21,72.0
21.22,58.0
21.23,67.0
21.24,77.0
21.25,69.0
21.26,64.0
21.27,70.0
21.28,62.0
21.29,61.0
21.3,58.0
21.31,71.0
21.32,55.0
21.33,59.0
21.34,54.0
21.35,65.0
21.36,50.0
21.37,66.0
21.38,63.0
21.39,53.0
21.4,73.0
21.41,59.0
21.42,56.0
21.43,52.0
21.44,53.0
21.45,59.0
21.46,55.0
21.47,63.0
21.48,60.0
21.49,69.0
21.5,60.0
21.51,66.0
21.52,55.0
21.53,55.0
21.54,60.0
21.55,69.0
21.56,70.0
21.57,46.0
21.58,69.0
21.59,59.0
21.6,55.0
21.61,47.0
21.62,64.0
21.63,56.0
21.64,49.0
21.65,50.0
21.66,63.0
21.67,71.0
21.68,57.0
21.69,61.0
21.7,53.0
21.71,50.0
21.72,57.0
21.73,47.0
21.74,44.0
21.75,56.0
21.76,64.0
21.77,71.0
21.78,50.0
21.79,58.0
21.8,53.0
21.81,57.0
21.82,65.0
21.83,54.0
21.84,65.0
21.85,59.0
21.86,67.0
21.87,58.0
21.88,57.0
21.89,39.0
21.9,49.0
21.91,62.0
21.92,53.0
21.93,61.0
21.94,50.0
21.95,54.0
21.96,54.0
21.97,64.0
21.98,56.0
21.99,57.0
22.0,69.0
22.01,61.0
22.02,69.0
22.03,67.0
22.04,72.0
22.05,62.0
22.06,55.0
22.07,62.0
22.08,64.0
22.09,67.0
22.1,60.0
22.11,67.0
22.12,62.0
22.13,50.0
22.14,63.0
22.15,59.0
22.16,68.0
22.17,70.0
22.18,54.0
22.19,68.0
22.2,63.0
22.21,66.0
22.22,63.0
22.23,53.0
22.24,51.0
22.25,66.0
22.26,49.0
22.27,55.0
22.28,63.0
22.29,66.0
22.3,59.0
22.31,64.0
22.32,60.0
22.33,49.0
22.34,61.0
22.35,65.0
22.36,70.0
22.37,76.0
22.38,71.0
22.39,57.0
22.4,57.0
22.41,62.0
22.42,59.0
22.43,54.0
22.44,65.0
22.45,60.0
22.46,62.0
22.47,75.0
22.48,50.0
22.49,75.0
22.5,56.0
22.51,59.0
22.52,63.0
22.53,62.0
22.54,53.0
22.55,64.0
22.56,73.0
22.57,56.0
22.58,55.0
22.59,69.0
22.6,57.0
22.61,61.0
22.62,66.0
22.63,54.0
22.64,54.0
22.65,61.0
22.66,69.0
22.67,58.0
22.68,44.0
22.69,73.0
22.7,47.0
22.71,71.0
22.72,67.0
22.73,56.0
22.74,54.0
22.75,65.0
22.76,58.0
22.77,67.0
22.78,56.0
22.79,61.0
22.8,64.0
22.81,60.0
22.82,64.0
22.83,67.0
22.84,63.0
22.85,57.0
22.86,57.0
22.87,52.0
22.88,67.0
22.89,51.0
22.9,66.0
22.91,71.0
22.92,49.0
22.93,49.0
22.94,65.0
22.95,69.0
22.96,57.0
22.97,72.0
22.98,58.0
22.99,54.0
23.0,50.0
23.01,61.0
23.02,59.0
23.03,62.0
23.04,88.0
23.05,50.0
23.06,74.0
23.07,58.0
23.08,58.0
23.09,46.0
23.1,56.0
23.11,55.0
23.12,74.0
23.13,58.0
23.14,53.0
23.15,80.0
23.16,73.0
23.17,52.0
23.18,65.0
23.19,53.0
23.2,64.0
23.21,80.0
23.22,60.0
23.23,66.0
23.24,64.0
23.25,66.0
23.26,54.0
23.27,51.0
23.28,61.0
23.29,64.0
23.3,73.0
23.31,49.0
23.32,56.0
23.33,60.0
23.34,72.0
23.35,62.0
23.36,66.0
23.37,68.0
23.38,54.0
23.39,62.0
23.4,63.0
23.41,59.0
23.42,59.0
23.43,66.0
23.44,58.0
23.45,61.0
23.46,59.0
23.47,66.0
23.48,73.0
23.49,59.0
23.5,54.0
23.51,67.0
23.52,60.0
23.53,49.0
23.54,68.0
23.55,62.0
23.56,66.0
23.57,61.0
23.58,57.0
23.59,62.0
23.6,74.0
23.61,56.0
23.62,82.0
23.63,68.0
23.64,65.0
23.65,65.0
23.66,51.0
23.67,48.0
23.68,66.0
23.69,59.0
23.7,60.0
23.71,70.0
23.72,57.0
23.73,62.0
23.74,61.0
23.75,59.0
23.76,70.0
23.77,57.0
23.78,71.0
23.79,45.0
23.8,59.0
23.81,53.0
23.82,66.0
23.83,66.0
23.84,59.0
23.85,61.0
23.86,56.0
23.87,61.0
23.88,72.0
23.89,65.0
23.9,68.0
23.91,60.0
23.92,78.0
23.93,53.0
23.94,73.0
23.95,52.0
23.96,78.0
23.97,64.0
23.98,60.0
23.99,75.0
24.0,72.0
24.01,77.0
24.02,57.0
24.03,57.0
24.04,65.0
24.05,47.0
24.06,70.0
24.07,69.0
24.08,75.0
24.09,61.0
24.1,53.0
24.11,64.0
24.12,53.0
24.13,63.0
24.14,71.0
24.15,65.0
24.16,74.0
24.17,62.0
24.18,62.0
24.19,75.0
24.2,64.0
24.21,69.0
24.22,49.0
24.23,60.0
24.24,61.0
24.25,62.0
24.26,60.0
24.27,73.0
24.28,60.0
24.29,59.0
24.3,54.0
24.31,62.0
24.32,60.0
24.33,64.0
24.34,64.0
24.35,51.0
24.36,57.0
24.37,58.0
24.38,76.0
24.39,73.0
24.4,53.0
24.41,55.0
24.42,49.0
24.43,67.0
24.44,58.0
24.45,68.0
24.46,60.0
24.47,56.0
24.48,55.0
24.49,57.0
24.5,72.0
24.51,63.0
24.52,78.0
24.53,62.0
24.54,61.0
24.55,47.0
24.56,72.0
24.57,51.0
24.58,59.0
24.59,61.0
24.6,68.0
24.61,71.0
24.62,50.0
24.63,68.0
24.64,64.0
24.65,68.0
24.66,67.0
24.67,67.0
24.68,49.0
24.69,64.0
24.7,54.0
24.71,74.0
24.72,66.0
24.73,76.0
24.74,61.0
24.75,54.0
24.76,60.0
24.77,65.0
24.78,58.0
24.79,67.0
24.8,68.0
24.81,71.0
24.82,58.0
24.83,55.0
24.84,68.0
24.85,51.0
24.86,56.0
24.87,71.0
24.88,58.0
24.89,71.0
24.9,72.0
24.91,65.0
24.92,75.0
24.93,56.0
24.94,72.0
24.95,71.0
24.96,69.0
24.97,73.0
24.98,64.0
24.99,58.0
25.0,66.0
25.01,58.0
25.02,64.0
25.03,58.0
25.04,73.0
25.05,83.0
25.06,61.0
25.07,64.0
25.08,68.0
25.09,75.0
25.1,51.0
25.11,75.0
25.12,54.0
25.13,77.0
25.14,64.0
25.15,72.0
25.16,79.0
25.17,57.0
25.18,54.0
25.19,68.0
25.2,61.0
25.21,59.0
25.22,67.0
25.23,77.0
25.24,58.0
25.25,60.0
25.26,64.0
25.27,64.0
25.28,76.0
25.29,64.0
25.3,63.0
25.31,56.0
25.32,62.0
25.33,52.0
25.34,62.0
25.35,60.0
25.36,65.0
25.37,71.0
25.38,78.0
25.39,70.0
25.4,69.0
25.41,65.0
25.42,58.0
25.43,57.0
25.44,47.0
25.45,51.0
25.46,60.0
25.47,76.0
25.48,58.0
25.49,57.0
25.5,56.0
25.51,67.0
25.52,56.0
25.53,56.0
25.54,62.0
25.55,64.0
25.56,66.0
25.57,57.0
25.58,66.0
25.59,60.0
25.6,71.0
25.61,68.0
25.62,63.0
25.63,71.0
25.64,78.0
25.65,70.0
25.66,65.0
25.67,59.0
25.68,64.0
25.69,72.0
25.7,53.0
25.71,58.0
25.72,64.0
25.73,62.0
25.74,79.0
25.75,68.0
25.76,74.0
25.77,74.0
25.78,64.0
25.79,56.0
25.8,78.0
25.81,63.0
25.82,68.0
25.83,60.0
25.84,72.0
25.85,81.0
25.86,72.0
25.87,78.0
25.88,69.0
25.89,73.0
25.9,71.0
25.91,57.0
25.92,66.0
25.93,69.0
25.94,60.0
25.95,60.0
25.96,63.0
25.97,76.0
25.98,71.0
25.99,72.0
26.0,78.0
26.01,66.0
26.02,108.0
26.03,73.0
26.04,75.0
26.05,96.0
26.06,81.0
26.07,113.0
26.08,110.0
26.09,124.0
26.1,163.0
26.11,211.0
26.12,219.0
26.13,334.0
26.14,432.0
26.15,525.0
26.16,548.0
26.17,557.0
26.18,415.0
26.19,360.0
26.2,368.0
26.21,295.0
26.22,365.0
26.23,320.0
26.24,286.0
26.25,222.0
26.26,161.0
26.27,159.0
26.28,113.0
26.29,84.0
26.3,110.0
26.31,89.0
26.32,96.0
26.33,75.0
26.34,81.0
26.35,83.0
26.36,87.0
26.37,85.0
26.38,64.0
26.39,76.0
26.4,80.0
26.41,80.0
26.42,96.0
26.43,72.0
26.44,70.0
26.45,77.0
26.46,77.0
26.47,67.0
26.48,57.0
26.49,64.0
26.5,69.0
26.51,68.0
26.52,77.0
26.53,83.0
26.54,60.0
26.55,58.0
26.56,69.0
26.57,85.0
26.58,72.0
26.59,84.0
26.6,65.0
26.61,58.0
26.62,63.0
26.63,65.0
26.64,70.0
26.65,69.0
26.66,75.0
26.67,56.0
26.68,48.0
26.69,57.0
26.7,62.0
26.71,60.0
26.72,56.0
26.73,73.0
26.74,72.0
26.75,61.0
26.76,64.0
26.77,63.0
26.78,70.0
26.79,57.0
26.8,69.0
26.81,61.0
26.82,77.0
26.83,70.0
26.84,62.0
26.85,73.0
26.86,62.0
26.87,55.0
26.88,58.0
26.89,67.0
26.9,59.0
26.91,61.0
26.92,59.0
26.93,58.0
26.94,70.0
26.95,67.0
26.96,66.0
26.97,53.0
26.98,80.0
26.99,74.0
27.0,69.0
27.01,78.0
27.02,49.0
27.03,59.0
27.04,62.0
27.05,61.0
27.06,63.0
27.07,62.0
27.08,65.0
27.09,63.0
27.1,55.0
27.11,62.0
27.12,63.0
27.13,61.0
27.14,67.0
27.15,67.0
27.16,45.0
27.17,71.0
27.18,65.0
27.19,69.0
27.2,58.0
27.21,74.0
27.22,48.0
27.23,67.0
27.24,57.0
27.25,69.0
27.26,59.0
27.27,52.0
27.28,69.0
27.29,68.0
27.3,54.0
27.31,60.0
27.32,80.0
27.33,66.0
27.34,54.0
27.35,69.0
27.36,69.0
27.37,77.0
27.38,75.0
27.39,64.0
27.4,79.0
27.41,65.0
27.42,62.0
27.43,61.0
27.44,60.0
27.45,63.0
27.46,70.0
27.47,76.0
27.48,56.0
27.49,66.0
27.5,78.0
27.51,75.0
27.52,60.0
27.53,58.0
27.54,54.0
27.55,74.0
27.56,62.0
27.57,61.0
27.58,50.0
27.59,75.0
27.6,73.0
27.61,77.0
27.62,66.0
27.63,68.0
27.64,65.0
27.65,70.0
27.66,77.0
27.67,62.0
27.68,64.0
27.69,64.0
27.7,74.0
27.71,48.0
27.72,56.0
27.73,65.0
27.74,65.0
27.75,70.0
27.76,70.0
27.77,61.0
27.78,57.0
27.79,68.0
27.8,67.0
27.81,74.0
27.82,67.0
27.83,77.0
27.84,73.0
27.85,62.0
27.86,65.0
27.87,61.0
27.88,56.0
27.89,71.0
27.9,62.0
27.91,63.0
27.92,46.0
27.93,63.0
27.94,70.0
27.95,74.0
27.96,56.0
27.97,62.0
27.98,60.0
27.99,65.0
28.0,77.0
28.01,69.0
28.02,57.0
28.03,69.0
28.04,67.0
28.05,62.0
28.06,57.0
28.07,51.0
28.08,79.0
28.09,51.0
28.1,56.0
28.11,64.0
28.12,56.0
28.13,53.0
28.14,57.0
28.15,58.0
28.16,72.0
28.17,65.0
28.18,65.0
28.19,54.0
28.2,53.0
28.21,76.0
28.22,69.0
28.23,54.0
28.24,58.0
28.25,62.0
28.26,55.0
28.27,65.0
28.28,78.0
28.29,61.0
28.3,63.0
28.31,63.0
28.32,55.0
28.33,64.0
28.34,59.0
28.35,70.0
28.36,61.0
28.37,54.0
28.38,59.0
28.39,68.0
28.4,69.0
28.41,76.0
28.42,60.0
28.43,71.0
28.44,65.0
28.45,67.0
28.46,67.0
28.47,64.0
28.48,78.0
28.49,59.0
28.5,67.0
28.51,57.0
28.52,59.0
28.53,65.0
28.54,71.0
28.55,67.0
28.56,66.0
28.57,60.0
28.58,66.0
28.59,58.0
28.6,70.0
28.61,58.0
28.62,63.0
28.63,61.0
28.64,71.0
28.65,62.0
28.66,64.0
28.67,57.0
28.68,53.0
28.69,61.0
28.7,74.0
28.71,60.0
28.72,76.0
28.73,78.0
28.74,72.0
28.75,70.0
28.76,56.0
28.77,67.0
28.78,62.0
28.79,73.0
28.8,66.0
28.81,61.0
28.82,61.0
28.83,60.0
28.84,67.0
28.85,71.0
28.86,55.0
28.87,66.0
28.88,76.0
28.89,63.0
28.9,55.0
28.91,58.0
28.92,69.0
28.93,41.0
28.94,50.0
28.95,59.0
28.96,62.0
28.97,69.0
28.98,73.0
28.99,60.0
29.0,51.0
29.01,61.0
29.02,69.0
29.03,73.0
29.04,69.0
29.05,70.0
29.06,67.0
29.07,47.0
29.08,52.0
29.09,59.0
29.1,75.0
29.11,73.0
29.12,55.0
29.13,60.0
29.14,75.0
29.15,58.0
29.16,76.0
29.17,72.0
29.18,81.0
29.19,73.0
29.2,67.0
29.21,66.0
29.22,57.0
29.23,65.0
29.24,65.0
29.25,68.0
29.26,59.0
29.27,74.0
29.28,77.0
29.29,61.0
29.3,46.0
29.31,61.0
29.32,76.0
29.33,54.0
29.34,58.0
29.35,59.0
29.36,75.0
29.37,75.0
29.38,61.0
29.39,67.0
29.4,60.0
29.41,68.0
29.42,68.0
29.43,73.0
29.44,70.0
29.45,72.0
29.46,64.0
29.47,63.0
29.48,57.0
29.49,56.0
29.5,64.0
29.51,68.0
29.52,67.0
29.53,71.0
29.54,63.0
29.55,70.0
29.56,59.0
29.57,67.0
29.58,55.0
29.59,60.0
29.6,73.0
29.61,68.0
29.62,74.0
29.63,70.0
29.64,69.0
29.65,54.0
29.66,61.0
29.67,72.0
29.68,68.0
29.69,68.0
29.7,59.0
29.71,54.0
29.72,64.0
29.73,47.0
29.74,52.0
29.75,67.0
29.76,53.0
29.77,61.0
29.78,69.0
29.79,72.0
29.8,61.0
29.81,76.0
29.82,46.0
29.83,70.0
29.84,79.0
29.85,73.0
29.86,60.0
29.87,79.0
29.88,75.0
29.89,66.0
29.9,61.0
29.91,63.0
29.92,61.0
29.93,65.0
29.94,70.0
29.95,49.0
29.96,64.0
29.97,63.0
29.98,54.0
29.99,76.0
30.0,56.0
30.01,55.0
30.02,60.0
30.03,66.0
30.04,57.0
30.05,65.0
30.06,76.0
30.07,59.0
30.08,58.0
30.09,60.0
30.1,69.0
30.11,64.0
30.12,60.0
30.13,59.0
30.14,60.0
30.15,57.0
30.16,72.0
30.17,52.0
30.18,55.0
30.19,67.0
30.2,68.0
30.21,77.0
30.22,68.0
30.23,70.0
30.24,67.0
30.25,63.0
30.26,78.0
30.27,72.0
30.28,69.0
30.29,60.0
30.3,64.0
30.31,65.0
30.32,69.0
30.33,66.0
30.34,63.0
30.35,76.0
30.36,59.0
30.37,69.0
30.38,81.0
30.39,66.0
30.4,66.0
30.41,61.0
30.42,65.0
30.43,73.0
30.44,48.0
30.45,63.0
30.46,68.0
30.47,52.0
30.48,58.0
30.49,70.0
30.5,54.0
30.51,61.0
30.52,78.0
30.53,65.0
30.54,80.0
30.55,64.0
30.56,94.0
30.57,68.0
30.58,81.0
30.59,72.0
30.6,62.0
30.61,79.0
30.62,65.0
30.63,67.0
30.64,67.0
30.65,67.0
30.66,74.0
30.67,57.0
30.68,62.0
30.69,65.0
30.7,65.0
30.71,56.0
30.72,71.0
30.73,69.0
30.74,73.0
30.75,60.0
30.76,76.0
30.77,57.0
30.78,67.0
30.79,75.0
30.8,64.0
30.81,65.0
30.82,64.0
30.83,69.0
30.84,63.0
30.85,83.0
30.86,65.0
30.87,73.0
30.88,64.0
30.89,60.0
30.9,63.0
30.91,72.0
30.92,57.0
30.93,69.0
30.94,70.0
30.95,74.0
30.96,70.0
30.97,72.0
30.98,66.0
30.99,59.0
31.0,77.0
31.01,65.0
31.02,47.0
31.03,57.0
31.04,52.0
31.05,72.0
31.06,84.0
31.07,63.0
31.08,74.0
31.09,66.0
31.1,67.0
31.11,66.0
31.12,71.0
31.13,72.0
31.14,60.0
31.15,66.0
31.16,76.0
31.17,52.0
31.18,48.0
31.19,57.0
31.2,73.0
31.21,70.0
31.22,67.0
31.23,58.0
31.24,63.0
31.25,72.0
31.26,65.0
31.27,63.0
31.28,69.0
31.29,53.0
31.3,63.0
31.31,71.0
31.32,58.0
31.33,63.0
31.34,67.0
31.35,60.0
31.36,67.0
31.37,47.0
31.38,80.0
31.39,63.0
31.4,67.0
31.41,74.0
31.42,60.0
31.43,56.0
31.44,49.0
31.45,59.0
31.46,60.0
31.47,52.0
31.48,71.0
31.49,75.0
31.5,70.0
31.51,75.0
31.52,64.0
31.53,45.0
31.54,66.0
31.55,62.0
31.56,66.0
31.57,51.0
31.58,66.0
31.59,76.0
31.6,59.0
31.61,74.0
31.62,67.0
31.63,71.0
31.64,78.0
31.65,55.0
31.66,66.0
31.67,70.0
31.68,61.0
31.69,64.0
31.7,61.0
31.71,53.0
31.72,68.0
31.73,62.0
31.74,76.0
31.75,67.0
31.76,77.0
31.77,54.0
31.78,69.0
31.79,46.0
31.8,56.0
31.81,73.0
31.82,64.0
31.83,60.0
31.84,77.0
31.85,66.0
31.86,78.0
31.87,84.0
31.88,69.0
31.89,73.0
31.9,71.0
31.91,72.0
31.92,64.0
31.93,71.0
31.94,52.0
31.95,80.0
31.96,87.0
31.97,69.0
31.98,62.0
31.99,79.0
32.0,55.0
32.01,57.0
32.02,62.0
32.03,63.0
32.04,64.0
32.05,65.0
32.06,90.0
32.07,86.0
32.08,73.0
32.09,52.0
32.1,58.0
32.11,57.0
32.12,71.0
32.13,75.0
32.14,65.0
32.15,50.0
32.16,64.0
32.17,72.0
32.18,68.0
32.19,61.0
32.2,76.0
32.21,80.0
32.22,62.0
32.23,64.0
32.24,88.0
32.25,66.0
32.26,64.0
32.27,66.0
32.28,65.0
32.29,59.0
32.3,58.0
32.31,57.0
32.32,68.0
32.33,64.0
32.34,61.0
32.35,60.0
32.36,69.0
32.37,66.0
32.38,71.0
32.39,64.0
32.4,70.0
32.41,62.0
32.42,72.0
32.43,68.0
32.44,69.0
32.45,57.0
32.46,69.0
32.47,61.0
32.48,58.0
32.49,79.0
32.5,51.0
32.51,72.0
32.52,62.0
32.53,58.0
32.54,58.0
32.55,63.0
32.56,85.0
32.57,56.0
32.58,68.0
32.59,67.0
32.6,68.0
32.61,62.0
32.62,67.0
32.63,72.0
32.64,61.0
32.65,50.0
32.66,62.0
32.67,59.0
32.68,69.0
32.69,71.0
32.7,62.0
32.71,64.0
32.72,69.0
32.73,61.0
32.74,66.0
32.75,66.0
32.76,62.0
32.77,68.0
32.78,69.0
32.79,60.0
32.8,73.0
32.81,75.0
32.82,69.0
32.83,74.0
32.84,72.0
32.85,68.0
32.86,65.0
32.87,61.0
32.88,83.0
32.89,64.0
32.9,62.0
32.91,72.0
32.92,49.0
32.93,60.0
32.94,63.0
32.95,75.0
32.96,69.0
32.97,60.0
32.98,77.0
32.99,65.0
33.0,59.0
33.01,64.0
33.02,63.0
33.03,61.0
33.04,74.0
33.05,63.0
33.06,75.0
33.07,81.0
33.08,65.0
33.09,70.0
33.1,60.0
33.11,64.0
33.12,63.0
33.13,59.0
33.14,58.0
33.15,77.0
33.16,60.0
33.17,77.0
33.18,60.0
33.19,81.0
33.2,65.0
33.21,67.0
33.22,63.0
33.23,76.0
33.24,80.0
33.25,65.0
33.26,53.0
33.27,62.0
33.28,57.0
33.29,71.0
33.3,67.0
33.31,80.0
33.32,78.0
33.33,64.0
33.34,62.0
33.35,68.0
33.36,69.0
33.37,64.0
33.38,78.0
33.39,61.0
33.4,71.0
33.41,60.0
33.42,64.0
33.43,74.0
33.44,68.0
33.45,71.0
33.46,66.0
33.47,73.0
33.48,74.0
33.49,70.0
33.5,76.0
33.51,69.0
33.52,72.0
33.53,80.0
33.54,76.0
33.55,78.0
33.56,82.0
33.57,69.0
33.58,66.0
33.59,73.0
33.6,65.0
33.61,69.0
33.62,73.0
33.63,81.0
33.64,77.0
33.65,81.0
33.66,78.0
33.67,63.0
33.68,62.0
33.69,55.0
33.7,58.0
33.71,57.0
33.72,68.0
33.73,79.0
33.74,75.0
33.75,74.0
33.76,57.0
33.77,72.0
33.78,71.0
33.79,79.0
33.8,81.0
33.81,73.0
33.82,62.0
33.83,81.0
33.84,79.0
33.85,91.0
33.86,88.0
33.87,79.0
33.88,104.0
33.89,76.0
33.9,94.0
33.91,92.0
33.92,111.0
33.93,129.0
33.94,167.0
33.95,166.0
33.96,202.0
33.97,217.0
33.98,195.0
33.99,170.0
34.0,145.0
34.01,161.0
34.02,153.0
34.03,130.0
34.04,137.0
34.05,175.0
34.06,167.0
34.07,115.0
34.08,122.0
34.09,96.0
34.1,93.0
34.11,92.0
34.12,87.0
34.13,101.0
34.14,71.0
34.15,85.0
34.16,68.0
34.17,66.0
34.18,91.0
34.19,78.0
34.2,62.0
34.21,77.0
34.22,66.0
34.23,66.0
34.24,81.0
34.25,75.0
34.26,58.0
34.27,67.0
34.28,68.0
34.29,73.0
34.3,71.0
34.31,76.0
34.32,63.0
34.33,76.0
34.34,75.0
34.35,60.0
34.36,73.0
34.37,72.0
34.38,65.0
34.39,68.0
34.4,64.0
34.41,74.0
34.42,65.0
34.43,88.0
34.44,66.0
34.45,63.0
34.46,64.0
34.47,74.0
34.48,76.0
34.49,74.0
34.5,65.0
34.51,67.0
34.52,52.0
34.53,59.0
34.54,54.0
34.55,71.0
34.56,63.0
34.57,82.0
34.58,84.0
34.59,67.0
34.6,64.0
34.61,67.0
34.62,69.0
34.63,68.0
34.64,70.0
34.65,70.0
34.66,73.0
34.67,55.0
34.68,75.0
34.69,68.0
34.7,79.0
34.71,86.0
34.72,58.0
34.73,71.0
34.74,56.0
34.75,61.0
34.76,75.0
34.77,62.0
34.78,71.0
34.79,55.0
34.8,74.0
34.81,64.0
34.82,63.0
34.83,87.0
34.84,73.0
34.85,74.0
34.86,77.0
34.87,74.0
34.88,67.0
34.89,58.0
34.9,73.0
34.91,63.0
34.92,67.0
34.93,72.0
34.94,79.0
34.95,78.0
34.96,70.0
34.97,71.0
34.98,63.0
34.99,71.0
35.0,57.0
35.01,59.0
35.02,75.0
35.03,75.0
35.04,58.0
35.05,80.0
35.06,77.0
35.07,54.0
35.08,61.0
35.09,68.0
35.1,65.0
35.11,73.0
35.12,66.0
35.13,65.0
35.14,59.0
35.15,95.0
35.16,79.0
35.17,78.0
35.18,68.0
35.19,68.0
35.2,63.0
35.21,79.0
35.22,73.0
35.23,66.0
35.24,63.0
35.25,69.0
35.26,62.0
35.27,71.0
35.28,63.0
35.29,69.0
35.3,54.0
35.31,69.0
35.32,59.0
35.33,81.0
35.34,51.0
35.35,79.0
35.36,76.0
35.37,73.0
35.38,67.0
35.39,71.0
35.4,62.0
35.41,65.0
35.42,86.0
35.43,71.0
35.44,71.0
35.45,68.0
35.46,81.0
35.47,88.0
35.48,60.0
35.49,57.0
35.5,77.0
35.51,77.0
35.52,74.0
35.53,71.0
35.54,75.0
35.55,93.0
35.56,103.0
35.57,99.0
35.58,88.0
35.59,80.0
35.6,70.0
35.61,84.0
35.62,92.0
35.63,68.0
35.64,89.0
35.65,73.0
35.66,80.0
35.67,75.0
35.68,83.0
35.69,86.0
35.7,66.0
35.71,88.0
35.72,83.0
35.73,95.0
35.74,61.0
35.75,81.0
35.76,74.0
35.77,67.0
35.78,61.0
35.79,65.0
35.8,72.0
35.81,65.0
35.82,58.0
35.83,65.0
35.84,74.0
35.85,76.0
35.86,69.0
35.87,73.0
35.88,69.0
35.89,81.0
35.9,59.0
35.91,69.0
35.92,51.0
35.93,72.0
35.94,68.0
35.95,82.0
35.96,66.0
35.97,57.0
35.98,54.0
35.99,62.0
36.0,71.0
36.01,68.0
36.02,65.0
36.03,62.0
36.04,86.0
36.05,83.0
36.06,66.0
36.07,71.0
36.08,62.0
36.09,75.0
36.1,78.0
36.11,82.0
36.12,82.0
36.13,67.0
36.14,76.0
36.15,68.0
36.16,67.0
36.17,85.0
36.18,55.0
36.19,60.0
36.2,65.0
36.21,69.0
36.22,80.0
36.23,64.0
36.24,84.0
36.25,60.0
36.26,64.0
36.27,73.0
36.28,68.0
36.29,74.0
36.3,79.0
36.31,82.0
36.32,63.0
36.33,74.0
36.34,71.0
36.35,58.0
36.36,66.0
36.37,63.0
36.38,61.0
36.39,79.0
36.4,77.0
36.41,56.0
36.42,81.0
36.43,62.0
36.44,86.0
36.45,61.0
36.46,61.0
36.47,61.0
36.48,68.0
36.49,88.0
36.5,70.0
36.51,71.0
36.52,73.0
36.53,81.0
36.54,51.0
36.55,79.0
36.56,78.0
36.57,75.0
36.58,88.0
36.59,62.0
36.6,62.0
36.61,62.0
36.62,66.0
36.63,68.0
36.64,70.0
36.65,61.0
36.66,65.0
36.67,82.0
36.68,63.0
36.69,74.0
36.7,60.0
36.71,66.0
36.72,80.0
36.73,69.0
36.74,65.0
36.75,59.0
36.76,64.0
36.77,63.0
36.78,57.0
36.79,71.0
36.8,68.0
36.81,73.0
36.82,62.0
36.83,59.0
36.84,68.0
36.85,50.0
36.86,57.0
36.87,59.0
36.88,79.0
36.89,57.0
36.9,82.0
36.91,82.0
36.92,88.0
36.93,68.0
36.94,80.0
36.95,73.0
36.96,80.0
36.97,60.0
36.98,70.0
36.99,81.0
37.0,71.0
37.01,71.0
37.02,74.0
37.03,70.0
37.04,89.0
37.05,76.0
37.06,87.0
37.07,72.0
37.08,66.0
37.09,61.0
37.1,92.0
37.11,81.0
37.12,72.0
37.13,81.0
37.14,83.0
37.15,90.0
37.16,71.0
37.17,103.0
37.18,108.0
37.19,122.0
37.2,106.0
37.21,126.0
37.22,130.0
37.23,128.0
37.24,135.0
37.25,119.0
37.26,113.0
37.27,103.0
37.28,106.0
37.29,100.0
37.3,109.0
37.31,99.0
37.32,105.0
37.33,90.0
37.34,92.0
37.35,71.0
37.36,87.0
37.37,82.0
37.38,67.0
37.39,81.0
37.4,93.0
37.41,71.0
37.42,77.0
37.43,69.0
37.44,86.0
37.45,66.0
37.46,74.0
37.47,69.0
37.48,78.0
37.49,74.0
37.5,77.0
37.51,83.0
37.52,62.0
37.53,55.0
37.54,65.0
37.55,60.0
37.56,72.0
37.57,79.0
37.58,76.0
37.59,67.0
37.6,79.0
37.61,64.0
37.62,68.0
37.63,68.0
37.64,52.0
37.65,64.0
37.66,79.0
37.67,74.0
37.68,62.0
37.69,62.0
37.7,71.0
37.71,75.0
37.72,57.0
37.73,65.0
37.74,77.0
37.75,71.0
37.76,78.0
37.77,67.0
37.78,73.0
37.79,83.0
37.8,67.0
37.81,67.0
37.82,83.0
37.83,54.0
37.84,72.0
37.85,87.0
37.86,67.0
37.87,71.0
37.88,76.0
37.89,70.0
37.9,59.0
37.91,65.0
37.92,62.0
37.93,69.0
37.94,78.0
37.95,78.0
37.96,59.0
37.97,69.0
37.98,76.0
37.99,80.0
38.0,74.0
38.01,65.0
38.02,67.0
38.03,65.0
38.04,75.0
38.05,76.0
38.06,85.0
38.07,74.0
38.08,62.0
38.09,74.0
38.1,75.0
38.11,83.0
38.12,56.0
38.13,59.0
38.14,64.0
38.15,73.0
38.16,79.0
38.17,77.0
38.18,68.0
38.19,81.0
38.2,80.0
38.21,65.0
38.22,87.0
38.23,64.0
38.24,77.0
38.25,71.0
38.26,67.0
38.27,70.0
38.28,67.0
38.29,59.0
38.3,51.0
38.31,67.0
38.32,67.0
38.33,62.0
38.34,69.0
38.35,78.0
38.36,78.0
38.37,75.0
38.38,88.0
38.39,65.0
38.4,65.0
38.41,76.0
38.42,75.0
38.43,68.0
38.44,75.0
38.45,60.0
38.46,85.0
38.47,64.0
38.48,62.0
38.49,57.0
38.5,73.0
38.51,66.0
38.52,63.0
38.53,66.0
38.54,77.0
38.55,63.0
38.56,66.0
38.57,65.0
38.58,72.0
38.59,51.0
38.6,68.0
38.61,65.0
38.62,80.0
38.63,65.0
38.64,72.0
38.65,77.0
38.66,66.0
38.67,76.0
38.68,74.0
38.69,69.0
38.7,70.0
38.71,74.0
38.72,71.0
38.73,65.0
38.74,67.0
38.75,78.0
38.76,73.0
38.77,80.0
38.78,66.0
38.79,60.0
38.8,68.0
38.81,61.0
38.82,70.0
38.83,80.0
38.84,61.0
38.85,72.0
38.86,94.0
38.87,67.0
38.88,76.0
38.89,69.0
38.9,77.0
38.91,61.0
38.92,66.0
38.93,61.0
38.94,78.0
38.95,70.0
38.96,66.0
38.97,73.0
38.98,74.0
38.99,86.0
39.0,58.0
39.01,80.0
39.02,73.0
39.03,72.0
39.04,60.0
39.05,71.0
39.06,71.0
39.07,81.0
39.08,72.0
39.09,60.0
39.1,73.0
39.11,55.0
39.12,61.0
39.13,72.0
39.14,67.0
39.15,77.0
39.16,65.0
39.17,90.0
39.18,68.0
39.19,74.0
39.2,62.0
39.21,79.0
39.22,84.0
39.23,72.0
39.24,70.0
39.25,82.0
39.26,57.0
39.27,79.0
39.28,59.0
39.29,69.0
39.3,65.0
39.31,75.0
39.32,63.0
39.33,75.0
39.34,68.0
39.35,69.0
39.36,77.0
39.37,72.0
39.38,60.0
39.39,74.0
39.4,76.0
39.41,81.0
39.42,75.0
39.43,64.0
39.44,76.0
39.45,70.0
39.46,59.0
39.47,68.0
39.48,70.0
39.49,77.0
39.5,80.0
39.51,75.0
39.52,62.0
39.53,72.0
39.54,79.0
39.55,80.0
39.56,91.0
39.57,80.0
39.58,66.0
39.59,63.0
39.6,79.0
39.61,88.0
39.62,78.0
39.63,84.0
39.64,101.0
39.65,108.0
39.66,120.0
39.67,118.0
39.68,125.0
39.69,136.0
39.7,124.0
39.71,122.0
39.72,90.0
39.73,100.0
39.74,92.0
39.75,92.0
39.76,101.0
39.77,116.0
39.78,107.0
39.79,90.0
39.8,87.0
39.81,78.0
39.82,81.0
39.83,102.0
39.84,91.0
39.85,74.0
39.86,59.0
39.87,80.0
39.88,79.0
39.89,67.0
39.9,76.0
39.91,60.0
39.92,65.0
39.93,74.0
39.94,62.0
39.95,68.0
39.96,72.0
39.97,63.0
39.98,73.0
39.99,77.0
40.0,74.0
40.01,60.0
40.02,68.0
40.03,57.0
40.04,80.0
40.05,74.0
40.06,73.0
40.07,68.0
40.08,78.0
40.09,87.0
40.1,53.0
40.11,76.0
40.12,71.0
40.13,56.0
40.14,69.0
40.15,64.0
40.16,55.0
40.17,72.0
40.18,64.0
40.19,71.0
40.2,77.0
40.21,89.0
40.22,88.0
40.23,82.0
40.24,80.0
40.25,66.0
40.26,73.0
40.27,63.0
40.28,69.0
40.29,64.0
40.3,63.0
40.31,64.0
40.32,74.0
40.33,76.0
40.34,81.0
40.35,76.0
40.36,72.0
40.37,60.0
40.38,74.0
40.39,70.0
40.4,76.0
40.41,100.0
40.42,89.0
40.43,83.0
40.44,88.0
40.45,80.0
40.46,82.0
40.47,69.0
40.48,80.0
40.49,66.0
40.5,89.0
40.51,75.0
40.52,78.0
40.53,73.0
40.54,83.0
40.55,65.0
40.56,64.0
40.57,67.0
40.58,56.0
40.59,66.0
40.6,75.0
40.61,65.0
40.62,76.0
40.63,79.0
40.64,65.0
40.65,70.0
40.66,75.0
40.67,61.0
40.68,82.0
40.69,73.0
40.7,62.0
40.71,68.0
40.72,65.0
40.73,62.0
40.74,62.0
40.75,62.0
40.76,83.0
40.77,77.0
40.78,76.0
40.79,60.0
40.8,68.0
40.81,67.0
40.82,74.0
40.83,68.0
40.84,84.0
40.85,75.0
40.86,87.0
40.87,58.0
40.88,71.0
40.89,77.0
40.9,54.0
40.91,63.0
40.92,66.0
40.93,60.0
40.94,71.0
40.95,49.0
40.96,78.0
40.97,80.0
40.98,71.0
40.99,74.0
41.0,66.0
41.01,77.0
41.02,60.0
41.03,82.0
41.04,78.0
41.05,91.0
41.06,83.0
41.07,76.0
41.08,87.0
41.09,90.0
41.1,92.0
41.11,101.0
41.12,79.0
41.13,90.0
41.14,73.0
41.15,89.0
41.16,81.0
41.17,88.0
41.18,66.0
41.19,77.0
41.2,71.0
41.21,82.0
41.22,66.0
41.23,75.0
41.24,75.0
41.25,69.0
41.26,72.0
41.27,100.0
41.28,66.0
41.29,69.0
41.3,69.0
41.31,46.0
41.32,72.0
41.33,67.0
41.34,71.0
41.35,73.0
41.36,73.0
41.37,66.0
41.38,69.0
41.39,61.0
41.4,83.0
41.41,77.0
41.42,70.0
41.43,75.0
41.44,78.0
41.45,72.0
41.46,69.0
41.47,57.0
41.48,60.0
41.49,59.0
41.5,65.0
41.51,57.0
41.52,54.0
41.53,92.0
41.54,84.0
41.55,70.0
41.56,72.0
41.57,76.0
41.58,81.0
41.59,50.0
41.6,69.0
41.61,69.0
41.62,69.0
41.63,52.0
41.64,61.0
41.65,59.0
41.66,77.0
41.67,69.0
41.68,74.0
41.69,51.0
41.7,67.0
41.71,78.0
41.72,82.0
41.73,55.0
41.74,61.0
41.75,63.0
41.76,63.0
41.77,66.0
41.78,70.0
41.79,86.0
41.8,89.0
41.81,69.0
41.82,71.0
41.83,77.0
41.84,62.0
41.85,66.0
41.86,71.0
41.87,74.0
41.88,58.0
41.89,69.0
41.9,63.0
41.91,79.0
41.92,68.0
41.93,75.0
41.94,74.0
41.95,56.0
41.96,76.0
41.97,68.0
41.98,65.0
41.99,74.0
42.0,58.0
42.01,87.0
42.02,66.0
42.03,68.0
42.04,65.0
42.05,69.0
42.06,70.0
42.07,64.0
42.08,59.0
42.09,80.0
42.1,66.0
42.11,78.0
42.12,48.0
42.13,72.0
42.14,69.0
42.15,61.0
42.16,80.0
42.17,72.0
42.18,62.0
42.19,65.0
42.2,63.0
42.21,68.0
42.22,67.0
42.23,74.0
42.24,50.0
42.25,72.0
42.26,72.0
42.27,58.0
42.28,76.0
42.29,63.0
42.3,69.0
42.31,77.0
42.32,80.0
42.33,57.0
42.34,60.0
42.35,67.0
42.36,71.0
42.37,69.0
42.38,80.0
42.39,67.0
42.4,53.0
42.41,74.0
42.42,78.0
42.43,86.0
42.44,69.0
42.45,53.0
42.46,64.0
42.47,81.0
42.48,56.0
42.49,68.0
42.5,62.0
42.51,67.0
42.52,57.0
42.53,64.0
42.54,61.0
42.55,72.0
42.56,53.0
42.57,73.0
42.58,60.0
42.59,63.0
42.6,60.0
42.61,64.0
42.62,71.0
42.63,71.0
42.64,65.0
42.65,75.0
42.66,65.0
42.67,54.0
42.68,87.0
42.69,64.0
42.7,58.0
42.71,72.0
42.72,70.0
42.73,59.0
42.74,74.0
42.75,66.0
42.76,67.0
42.77,75.0
42.78,66.0
42.79,78.0
42.8,62.0
42.81,75.0
42.82,66.0
42.83,70.0
42.84,68.0
42.85,80.0
42.86,76.0
42.87,65.0
42.88,70.0
42.89,66.0
42.9,67.0
42.91,82.0
42.92,69.0
42.93,76.0
42.94,66.0
42.95,89.0
42.96,75.0
42.97,61.0
42.98,83.0
42.99,54.0
43.0,67.0
43.01,69.0
43.02,70.0
43.03,72.0
43.04,67.0
43.05,53.0
43.06,73.0
43.07,79.0
43.08,55.0
43.09,88.0
43.1,61.0
43.11,62.0
43.12,60.0
43.13,81.0
43.14,60.0
43.15,67.0
43.16,75.0
43.17,59.0
43.18,61.0
43.19,62.0
43.2,71.0
43.21,61.0
43.22,68.0
43.23,69.0
43.24,62.0
43.25,64.0
43.26,88.0
43.27,70.0
43.28,57.0
43.29,52.0
43.3,73.0
43.31,78.0
43.32,54.0
43.33,56.0
43.34,72.0
43.35,63.0
43.36,83.0
43.37,78.0
43.38,68.0
43.39,60.0
43.4,67.0
43.41,64.0
43.42,70.0
43.43,69.0
43.44,68.0
43.45,81.0
43.46,64.0
43.47,64.0
43.48,79.0
43.49,66.0
43.5,78.0
43.51,82.0
43.52,58.0
43.53,68.0
43.54,69.0
43.55,67.0
43.56,75.0
43.57,58.0
43.58,76.0
43.59,63.0
43.6,67.0
43.61,69.0
43.62,62.0
43.63,77.0
43.64,55.0
43.65,71.0
43.66,74.0
43.67,56.0
43.68,79.0
43.69,67.0
43.7,78.0
43.71,85.0
43.72,74.0
43.73,80.0
43.74,67.0
43.75,57.0
43.76,57.0
43.77,66.0
43.78,60.0
43.79,56.0
43.8,63.0
43.81,78.0
43.82,57.0
43.83,69.0
43.84,56.0
43.85,70.0
43.86,62.0
43.87,66.0
43.88,67.0
43.89,74.0
43.9,79.0
43.91,61.0
43.92,63.0
43.93,67.0
43.94,74.0
43.95,78.0
43.96,74.0
43.97,78.0
43.98,69.0
43.99,62.0
44.0,62.0
44.01,73.0
44.02,60.0
44.03,59.0
44.04,70.0
44.05,64.0
44.06,54.0
44.07,91.0
44.08,67.0
44.09,56.0
44.1,81.0
44.11,69.0
44.12,65.0
44.13,66.0
44.14,68.0
44.15,68.0
44.16,68.0
44.17,75.0
44.18,73.0
44.19,75.0
44.2,56.0
44.21,68.0
44.22,74.0
44.23,59.0
44.24,69.0
44.25,61.0
44.26,66.0
44.27,80.0
44.28,67.0
44.29,62.0
44.3,67.0
44.31,54.0
44.32,57.0
44.33,80.0
44.34,73.0
44.35,61.0
44.36,66.0
44.37,65.0
44.38,70.0
44.39,71.0
44.4,70.0
44.41,63.0
44.42,67.0
44.43,65.0
44.44,77.0
44.45,79.0
44.46,78.0
44.47,74.0
44.48,66.0
44.49,77.0
44.5,70.0
44.51,69.0
44.52,64.0
44.53,65.0
44.54,73.0
44.55,58.0
44.56,73.0
44.57,64.0
44.58,62.0
44.59,68.0
44.6,54.0
44.61,71.0
44.62,65.0
44.63,76.0
44.64,84.0
44.65,64.0
44.66,89.0
44.67,79.0
44.68,66.0
44.69,68.0
44.7,65.0
44.71,62.0
44.72,59.0
44.73,79.0
44.74,52.0
44.75,73.0
44.76,63.0
44.77,85.0
44.78,77.0
44.79,90.0
44.8,62.0
44.81,64.0
44.82,69.0
44.83,61.0
44.84,66.0
44.85,77.0
44.86,73.0
44.87,82.0
44.88,67.0
44.89,77.0
44.9,76.0
44.91,64.0
44.92,68.0
44.93,56.0
44.94,59.0
44.95,75.0
44.96,75.0
44.97,71.0
44.98,55.0
44.99,80.0
45.0,71.0
45.01,66.0
45.02,54.0
45.03,66.0
45.04,59.0
45.05,74.0
45.06,68.0
45.07,69.0
45.08,63.0
45.09,63.0
45.1,79.0
45.11,66.0
45.12,78.0
45.13,70.0
45.14,69.0
45.15,67.0
45.16,73.0
45.17,71.0
45.18,67.0
45.19,71.0
45.2,67.0
45.21,61.0
45.22,69.0
45.23,79.0
45.24,76.0
45.25,57.0
45.26,72.0
45.27,64.0
45.28,67.0
45.29,80.0
45.3,67.0
45.31,67.0
45.32,80.0
45.33,80.0
45.34,71.0
45.35,69.0
45.36,70.0
45.37,56.0
45.38,74.0
45.39,70.0
45.4,60.0
45.41,74.0
45.42,63.0
45.43,64.0
45.44,64.0
45.45,68.0
45.46,63.0
45.47,84.0
45.48,69.0
45.49,76.0
45.5,64.0
45.51,70.0
45.52,69.0
45.53,58.0
45.54,71.0
45.55,65.0
45.56,78.0
45.57,82.0
45.58,72.0
45.59,60.0
45.6,46.0
45.61,67.0
45.62,62.0
45.63,73.0
45.64,72.0
45.65,74.0
45.66,71.0
45.67,87.0
45.68,63.0
45.69,61.0
45.7,64.0
45.71,80.0
45.72,63.0
45.73,55.0
45.74,60.0
45.75,76.0
45.76,69.0
45.77,66.0
45.78,70.0
45.79,62.0
45.8,76.0
45.81,55.0
45.82,58.0
45.83,81.0
45.84,50.0
45.85,68.0
45.86,65.0
45.87,68.0
45.88,59.0
45.89,71.0
45.9,85.0
45.91,90.0
45.92,61.0
45.93,64.0
45.94,79.0
45.95,73.0
45.96,70.0
45.97,73.0
45.98,76.0
45.99,73.0
46.0,96.0
46.01,63.0
46.02,62.0
46.03,83.0
46.04,66.0
46.05,54.0
46.06,75.0
46.07,78.0
46.08,79.0
46.09,57.0
46.1,67.0
46.11,78.0
46.12,69.0
46.13,68.0
46.14,79.0
46.15,58.0
46.16,89.0
46.17,54.0
46.18,73.0
46.19,70.0
46.2,62.0
46.21,78.0
46.22,61.0
46.23,57.0
46.24,77.0
46.25,82.0
46.26,47.0
46.27,49.0
46.28,65.0
46.29,74.0
46.3,82.0
46.31,63.0
46.32,59.0
46.33,65.0
46.34,86.0
46.35,67.0
46.36,69.0
46.37,68.0
46.38,76.0
46.39,62.0
46.4,69.0
46.41,61.0
46.42,70.0
46.43,75.0
46.44,59.0
46.45,71.0
46.46,73.0
46.47,66.0
46.48,72.0
46.49,57.0
46.5,83.0
46.51,71.0
46.52,70.0
46.53,70.0
46.54,65.0
46.55,67.0
46.56,77.0
46.57,76.0
46.58,82.0
46.59,59.0
46.6,64.0
46.61,64.0
46.62,63.0
46.63,69.0
46.64,78.0
46.65,76.0
46.66,64.0
46.67,84.0
46.68,72.0
46.69,79.0
46.7,68.0
46.71,63.0
46.72,58.0
46.73,79.0
46.74,57.0
46.75,72.0
46.76,55.0
46.77,68.0
46.78,61.0
46.79,71.0
46.8,77.0
46.81,67.0
46.82,62.0
46.83,78.0
46.84,62.0
46.85,65.0
46.86,58.0
46.87,71.0
46.88,65.0
46.89,61.0
46.9,77.0
46.91,70.0
46.92,74.0
46.93,56.0
46.94,72.0
46.95,61.0
46.96,65.0
46.97,88.0
46.98,68.0
46.99,72.0
47.0,67.0
47.01,74.0
47.02,72.0
47.03,70.0
47.04,63.0
47.05,59.0
47.06,72.0
47.07,72.0
47.08,58.0
47.09,87.0
47.1,66.0
47.11,80.0
47.12,75.0
47.13,81.0
47.14,58.0
47.15,89.0
47.16,84.0
47.17,65.0
47.18,76.0
47.19,69.0
47.2,82.0
47.21,84.0
47.22,74.0
47.23,85.0
47.24,68.0
47.25,72.0
47.26,83.0
47.27,73.0
47.28,72.0
47.29,77.0
47.3,81.0
47.31,85.0
47.32,68.0
47.33,64.0
47.34,57.0
47.35,73.0
47.36,81.0
47.37,67.0
47.38,70.0
47.39,61.0
47.4,71.0
47.41,79.0
47.42,66.0
47.43,58.0
47.44,63.0
47.45,70.0
47.46,72.0
47.47,60.0
47.48,67.0
47.49,61.0
47.5,58.0
47.51,72.0
47.52,69.0
47.53,77.0
47.54,71.0
47.55,76.0
47.56,82.0
47.57,75.0
47.58,60.0
47.59,85.0
47.6,75.0
47.61,58.0
47.62,63.0
47.63,64.0
47.64,77.0
47.65,61.0
47.66,71.0
47.67,76.0
47.68,56.0
47.69,64.0
47.7,55.0
47.71,91.0
47.72,76.0
47.73,71.0
47.74,66.0
47.75,73.0
47.76,80.0
47.77,81.0
47.78,73.0
47.79,78.0
47.8,81.0
47.81,74.0
47.82,77.0
47.83,74.0
47.84,64.0
47.85,62.0
47.86,68.0
47.87,73.0
47.88,85.0
47.89,70.0
47.9,74.0
47.91,79.0
47.92,65.0
47.93,74.0
47.94,77.0
47.95,56.0
47.96,52.0
47.97,69.0
47.98,66.0
47.99,73.0
48.0,69.0
48.01,60.0
48.02,54.0
48.03,65.0
48.04,66.0
48.05,63.0
48.06,73.0
48.07,83.0
48.08,76.0
48.09,61.0
48.1,72.0
48.11,81.0
48.12,69.0
48.13,65.0
48.14,67.0
48.15,77.0
48.16,85.0
48.17,65.0
48.18,70.0
48.19,74.0
48.2,77.0
48.21,60.0
48.22,85.0
48.23,69.0
48.24,74.0
48.25,68.0
48.26,68.0
48.27,70.0
48.28,78.0
48.29,74.0
48.3,63.0
48.31,85.0
48.32,73.0
48.33,64.0
48.34,69.0
48.35,81.0
48.36,67.0
48.37,74.0
48.38,75.0
48.39,75.0
48.4,63.0
48.41,61.0
48.42,82.0
48.43,64.0
48.44,70.0
48.45,73.0
48.46,63.0
48.47,70.0
48.48,71.0
48.49,66.0
48.5,56.0
48.51,66.0
48.52,83.0
48.53,77.0
48.54,71.0
48.55,62.0
48.56,61.0
48.57,82.0
48.58,63.0
48.59,67.0
48.6,68.0
48.61,81.0
48.62,78.0
48.63,80.0
48.64,69.0
48.65,87.0
48.66,83.0
48.67,77.0
48.68,66.0
48.69,76.0
48.7,77.0
48.71,72.0
48.72,78.0
48.73,69.0
48.74,60.0
48.75,73.0
48.76,72.0
48.77,64.0
48.78,65.0
48.79,69.0
48.8,85.0
48.81,61.0
48.82,71.0
48.83,63.0
48.84,72.0
48.85,78.0
48.86,77.0
48.87,65.0
48.88,76.0
48.89,71.0
48.9,67.0
48.91,66.0
48.92,69.0
48.93,66.0
48.94,54.0
48.95,83.0
48.96,82.0
48.97,61.0
48.98,83.0
48.99,73.0
49.0,65.0
49.01,53.0
49.02,70.0
49.03,71.0
49.04,70.0
49.05,70.0
49.06,67.0
49.07,76.0
49.08,65.0
49.09,74.0
49.1,69.0
49.11,78.0
49.12,85.0
49.13,78.0
49.14,73.0
49.15,63.0
49.16,63.0
49.17,62.0
49.18,80.0
49.19,78.0
49.2,67.0
49.21,73.0
49.22,54.0
49.23,65.0
49.24,77.0
49.25,63.0
49.26,78.0
49.27,67.0
49.28,78.0
49.29,78.0
49.3,88.0
49.31,74.0
49.32,71.0
49.33,72.0
49.34,71.0
49.35,82.0
49.36,81.0
49.37,72.0
49.38,66.0
49.39,76.0
49.4,60.0
49.41,56.0
49.42,59.0
49.43,71.0
49.44,64.0
49.45,73.0
49.46,59.0
49.47,65.0
49.48,70.0
49.49,86.0
49.5,67.0
49.51,76.0
49.52,75.0
49.53,66.0
49.54,64.0
49.55,63.0
49.56,70.0
49.57,69.0
49.58,62.0
49.59,53.0
49.6,86.0
49.61,69.0
49.62,62.0
49.63,52.0
49.64,69.0
49.65,69.0
49.66,71.0
49.67,58.0
49.68,91.0
49.69,53.0
49.7,58.0
49.71,58.0
49.72,79.0
49.73,77.0
49.74,61.0
49.75,61.0
49.76,69.0
49.77,72.0
49.78,81.0
49.79,57.0
49.8,58.0
49.81,83.0
49.82,75.0
49.83,73.0
49.84,72.0
49.85,76.0
49.86,74.0
49.87,69.0
49.88,76.0
49.89,81.0
49.9,75.0
49.91,68.0
49.92,67.0
49.93,77.0
49.94,62.0
49.95,73.0
49.96,74.0
49.97,81.0
49.98,60.0
49.99,66.0
50.0,65.0
50.01,73.0
50.02,77.0
50.03,77.0
50.04,62.0
50.05,86.0
50.06,73.0
50.07,65.0
50.08,70.0
50.09,71.0
50.1,62.0
50.11,80.0
50.12,72.0
50.13,67.0
50.14,79.0
50.15,70.0
50.16,66.0
50.17,65.0
50.18,81.0
50.19,76.0
50.2,60.0
50.21,70.0
50.22,77.0
50.23,85.0
50.24,77.0
50.25,69.0
50.26,68.0
50.27,81.0
50.28,67.0
50.29,58.0
50.3,63.0
50.31,62.0
50.32,68.0
50.33,74.0
50.34,68.0
50.35,56.0
50.36,85.0
50.37,75.0
50.38,76.0
50.39,65.0
50.4,77.0
50.41,74.0
50.42,86.0
50.43,64.0
50.44,76.0
50.45,73.0
50.46,81.0
50.47,68.0
50.48,71.0
50.49,76.0
50.5,77.0
50.51,71.0
50.52,68.0
50.53,91.0
50.54,79.0
50.55,58.0
50.56,61.0
50.57,69.0
50.58,61.0
50.59,74.0
50.6,53.0
50.61,61.0
50.62,67.0
50.63,78.0
50.64,70.0
50.65,73.0
50.66,54.0
50.67,76.0
50.68,64.0
50.69,65.0
50.7,68.0
50.71,86.0
50.72,57.0
50.73,65.0
50.74,72.0
50.75,65.0
50.76,71.0
50.77,69.0
50.78,79.0
50.79,74.0
50.8,73.0
50.81,65.0
50.82,62.0
50.83,69.0
50.84,73.0
50.85,70.0
50.86,70.0
50.87,73.0
50.88,82.0
50.89,75.0
50.9,68.0
50.91,82.0
50.92,97.0
50.93,62.0
50.94,86.0
50.95,66.0
50.96,72.0
50.97,86.0
50.98,91.0
50.99,76.0
51.0,60.0
51.01,89.0
51.02,68.0
51.03,78.0
51.04,79.0
51.05,72.0
51.06,42.0
51.07,71.0
51.08,69.0
51.09,83.0
51.1,71.0
51.11,84.0
51.12,89.0
51.13,75.0
51.14,92.0
51.15,67.0
51.16,79.0
51.17,72.0
51.18,92.0
51.19,98.0
51.2,96.0
51.21,88.0
51.22,95.0
51.23,100.0
51.24,115.0
51.25,104.0
51.26,98.0
51.27,110.0
51.28,128.0
51.29,101.0
51.3,105.0
51.31,114.0
51.32,82.0
51.33,103.0
51.34,104.0
51.35,74.0
51.36,73.0
51.37,123.0
51.38,108.0
51.39,88.0
51.4,83.0
51.41,111.0
51.42,87.0
51.43,90.0
51.44,93.0
51.45,81.0
51.46,78.0
51.47,64.0
51.48,80.0
51.49,61.0
51.5,95.0
51.51,82.0
51.52,96.0
51.53,67.0
51.54,80.0
51.55,77.0
51.56,59.0
51.57,70.0
51.58,70.0
51.59,74.0
51.6,69.0
51.61,85.0
51.62,69.0
51.63,87.0
51.64,71.0
51.65,62.0
51.66,69.0
51.67,85.0
51.68,60.0
51.69,58.0
51.7,77.0
51.71,72.0
51.72,63.0
51.73,70.0
51.74,73.0
51.75,73.0
51.76,75.0
51.77,70.0
51.78,81.0
51.79,77.0
51.8,56.0
51.81,70.0
51.82,78.0
51.83,57.0
51.84,57.0
51.85,72.0
51.86,60.0
51.87,71.0
51.88,69.0
51.89,68.0
51.9,64.0
51.91,68.0
51.92,72.0
51.93,57.0
51.94,65.0
51.95,56.0
51.96,53.0
51.97,71.0
51.98,72.0
51.99,73.0
52.0,81.0
52.01,90.0
52.02,65.0
52.03,75.0
52.04,64.0
52.05,56.0
52.06,61.0
52.07,70.0
52.08,77.0
52.09,88.0
52.1,71.0
52.11,68.0
52.12,66.0
52.13,68.0
52.14,85.0
52.15,70.0
52.16,66.0
52.17,85.0
52.18,60.0
52.19,63.0
52.2,56.0
52.21,65.0
52.22,59.0
52.23,66.0
52.24,76.0
52.25,88.0
52.26,56.0
52.27,61.0
52.28,80.0
52.29,84.0
52.3,69.0
52.31,70.0
52.32,68.0
52.33,79.0
52.34,61.0
52.35,71.0
52.36,60.0
52.37,79.0
52.38,64.0
52.39,70.0
52.4,77.0
52.41,72.0
52.42,60.0
52.43,73.0
52.44,76.0
52.45,72.0
52.46,79.0
52.47,75.0
52.48,79.0
52.49,79.0
52.5,76.0
52.51,80.0
52.52,59.0
52.53,68.0
52.54,82.0
52.55,65.0
52.56,80.0
52.57,72.0
52.58,74.0
52.59,70.0
52.6,73.0
52.61,72.0
52.62,72.0
52.63,62.0
52.64,71.0
52.65,63.0
52.66,69.0
52.67,70.0
52.68,74.0
52.69,60.0
52.7,62.0
52.71,61.0
52.72,67.0
52.73,77.0
52.74,69.0
52.75,77.0
52.76,68.0
52.77,82.0
52.78,74.0
52.79,65.0
52.8,67.0
52.81,71.0
52.82,83.0
52.83,83.0
52.84,83.0
52.85,71.0
52.86,74.0
52.87,77.0
52.88,75.0
52.89,70.0
52.9,68.0
52.91,70.0
52.92,68.0
52.93,68.0
52.94,60.0
52.95,63.0
52.96,67.0
52.97,75.0
52.98,72.0
52.99,69.0
53.0,65.0
53.01,73.0
53.02,58.0
53.03,63.0
53.04,70.0
53.05,76.0
53.06,67.0
53.07,60.0
53.08,77.0
53.09,66.0
53.1,62.0
53.11,79.0
53.12,70.0
53.13,72.0
53.14,75.0
53.15,74.0
53.16,73.0
53.17,59.0
53.18,79.0
53.19,70.0
53.2,79.0
53.21,77.0
53.22,79.0
53.23,62.0
53.24,73.0
53.25,86.0
53.26,75.0
53.27,72.0
53.28,72.0
53.29,59.0
53.3,71.0
53.31,75.0
53.32,64.0
53.33,80.0
53.34,71.0
53.35,64.0
53.36,82.0
53.37,54.0
53.38,82.0
53.39,76.0
53.4,60.0
53.41,70.0
53.42,66.0
53.43,72.0
53.44,70.0
53.45,72.0
53.46,75.0
53.47,72.0
53.48,77.0
53.49,70.0
53.5,62.0
53.51,85.0
53.52,66.0
53.53,84.0
53.54,68.0
53.55,66.0
53.56,66.0
53.57,71.0
53.58,76.0
53.59,78.0
53.6,70.0
53.61,73.0
53.62,63.0
53.63,71.0
53.64,81.0
53.65,89.0
53.66,67.0
53.67,61.0
53.68,61.0
53.69,82.0
53.7,89.0
53.71,78.0
53.72,90.0
53.73,88.0
53.74,88.0
53.75,111.0
53.76,97.0
53.77,120.0
53.78,122.0
53.79,123.0
53.8,110.0
53.81,119.0
53.82,102.0
53.83,95.0
53.84,99.0
53.85,86.0
53.86,88.0
53.87,83.0
53.88,95.0
53.89,76.0
53.9,96.0
53.91,77.0
53.92,103.0
53.93,88.0
53.94,86.0
53.95,85.0
53.96,80.0
53.97,92.0
53.98,82.0
53.99,64.0
54.0,89.0
54.01,76.0
54.02,71.0
54.03,81.0
54.04,79.0
54.05,68.0
54.06,82.0
54.07,82.0
54.08,65.0
54.09,58.0
54.1,54.0
54.11,86.0
54.12,70.0
54.13,85.0
54.14,85.0
54.15,77.0
54.16,65.0
54.17,96.0
54.18,80.0
54.19,81.0
54.2,80.0
54.21,57.0
54.22,74.0
54.23,79.0
54.24,67.0
54.25,60.0
54.26,68.0
54.27,78.0
54.28,62.0
54.29,68.0
54.3,85.0
54.31,95.0
54.32,78.0
54.33,82.0
54.34,77.0
54.35,58.0
54.36,80.0
54.37,71.0
54.38,75.0
54.39,71.0
54.4,71.0
54.41,77.0
54.42,75.0
54.43,81.0
54.44,95.0
54.45,64.0
54.46,67.0
54.47,74.0
54.48,72.0
54.49,94.0
54.5,87.0
54.51,69.0
54.52,55.0
54.53,85.0
54.54,81.0
54.55,67.0
54.56,82.0
54.57,85.0
54.58,64.0
54.59,65.0
54.6,81.0
54.61,80.0
54.62,85.0
54.63,73.0
54.64,68.0
54.65,73.0
54.66,69.0
54.67,74.0
54.68,64.0
54.69,63.0
54.7,69.0
54.71,88.0
54.72,75.0
54.73,82.0
54.74,76.0
54.75,91.0
54.76,90.0
54.77,95.0
54.78,80.0
54.79,70.0
54.8,100.0
54.81,73.0
54.82,101.0
54.83,80.0
54.84,104.0
54.85,113.0
54.86,111.0
54.87,119.0
54.88,141.0
54.89,146.0
54.9,145.0
54.91,149.0
54.92,131.0
54.93,123.0
54.94,147.0
54.95,109.0
54.96,109.0
54.97,131.0
54.98,103.0
54.99,115.0
55.0,92.0
55.01,100.0
55.02,105.0
55.03,113.0
55.04,132.0
55.05,115.0
55.06,106.0
55.07,114.0
55.08,112.0
55.09,97.0
55.1,93.0
55.11,92.0
55.12,100.0
55.13,97.0
55.14,93.0
55.15,81.0
55.16,61.0
55.17,73.0
55.18,79.0
55.19,81.0
55.2,72.0
55.21,77.0
55.22,84.0
55.23,80.0
55.24,55.0
55.25,71.0
55.26,80.0
55.27,67.0
55.28,87.0
55.29,63.0
55.3,92.0
55.31,72.0
55.32,74.0
55.33,91.0
55.34,75.0
55.35,66.0
55.36,60.0
55.37,79.0
55.38,66.0
55.39,67.0
55.4,68.0
55.41,74.0
55.42,95.0
55.43,66.0
55.44,64.0
55.45,69.0
55.46,73.0
55.47,66.0
55.48,73.0
55.49,70.0
55.5,60.0
55.51,63.0
55.52,80.0
55.53,77.0
55.54,90.0
55.55,72.0
55.56,63.0
55.57,68.0
55.58,79.0
55.59,83.0
55.6,80.0
55.61,82.0
55.62,71.0
55.63,66.0
55.64,98.0
55.65,72.0
55.66,82.0
55.67,66.0
55.68,87.0
55.69,77.0
55.7,65.0
55.71,54.0
55.72,67.0
55.73,66.0
55.74,75.0
55.75,82.0
55.76,77.0
55.77,71.0
55.78,73.0
55.79,72.0
55.8,79.0
55.81,81.0
55.82,76.0
55.83,68.0
55.84,59.0
55.85,76.0
55.86,73.0
55.87,80.0
55.88,66.0
55.89,80.0
55.9,85.0
55.91,82.0
55.92,65.0
55.93,73.0
55.94,74.0
55.95,82.0
55.96,83.0
55.97,71.0
55.98,82.0
55.99,87.0
56.0,65.0
56.01,77.0
56.02,81.0
56.03,69.0
56.04,86.0
56.05,91.0
56.06,65.0
56.07,82.0
56.08,83.0
56.09,88.0
56.1,74.0
56.11,82.0
56.12,84.0
56.13,115.0
56.14,110.0
56.15,113.0
56.16,124.0
56.17,135.0
56.18,125.0
56.19,124.0
56.2,112.0
56.21,84.0
56.22,104.0
56.23,102.0
56.24,77.0
56.25,93.0
56.26,84.0
56.27,82.0
56.28,90.0
56.29,95.0
56.3,100.0
56.31,99.0
56.32,118.0
56.33,104.0
56.34,91.0
56.35,91.0
56.36,84.0
56.37,80.0
56.38,82.0
56.39,66.0
56.4,89.0
56.41,77.0
56.42,69.0
56.43,65.0
56.44,79.0
56.45,81.0
56.46,63.0
56.47,73.0
56.48,76.0
56.49,74.0
56.5,79.0
56.51,68.0
56.52,71.0
56.53,56.0
56.54,81.0
56.55,94.0
56.56,87.0
56.57,62.0
56.58,78.0
56.59,62.0
56.6,58.0
56.61,79.0
56.62,69.0
56.63,74.0
56.64,73.0
56.65,64.0
56.66,75.0
56.67,78.0
56.68,78.0
56.69,79.0
56.7,83.0
56.71,83.0
56.72,65.0
56.73,70.0
56.74,81.0
56.75,89.0
56.76,68.0
56.77,86.0
56.78,72.0
56.79,60.0
56.8,68.0
56.81,81.0
56.82,73.0
56.83,73.0
56.84,88.0
56.85,74.0
56.86,61.0
56.87,64.0
56.88,70.0
56.89,80.0
56.9,74.0
56.91,73.0
56.92,61.0
56.93,73.0
56.94,61.0
56.95,68.0
56.96,66.0
56.97,98.0
56.98,68.0
56.99,68.0
57.0,73.0
57.01,68.0
57.02,57.0
57.03,84.0
57.04,82.0
57.05,77.0
57.06,78.0
57.07,68.0
57.08,80.0
57.09,70.0
57.1,76.0
57.11,63.0
57.12,61.0
57.13,79.0
57.14,66.0
57.15,56.0
57.16,77.0
57.17,63.0
57.18,54.0
57.19,78.0
57.2,80.0
57.21,73.0
57.22,78.0
57.23,66.0
57.24,79.0
57.25,66.0
57.26,70.0
57.27,77.0
57.28,56.0
57.29,68.0
57.3,74.0
57.31,67.0
57.32,91.0
57.33,75.0
57.34,63.0
57.35,65.0
57.36,78.0
57.37,74.0
57.38,69.0
57.39,79.0
57.4,76.0
57.41,64.0
57.42,65.0
57.43,71.0
57.44,82.0
57.45,65.0
57.46,63.0
57.47,66.0
57.48,67.0
57.49,82.0
57.5,75.0
57.51,66.0
57.52,72.0
57.53,66.0
57.54,76.0
57.55,64.0
57.56,85.0
57.57,77.0
57.58,61.0
57.59,75.0
57.6,68.0
57.61,86.0
57.62,72.0
57.63,72.0
57.64,82.0
57.65,85.0
57.66,67.0
57.67,68.0
57.68,72.0
57.69,84.0
57.7,70.0
57.71,66.0
57.72,58.0
57.73,79.0
57.74,72.0
57.75,70.0
57.76,74.0
57.77,71.0
57.78,59.0
57.79,75.0
57.8,59.0
57.81,71.0
57.82,77.0
57.83,58.0
57.84,70.0
57.85,89.0
57.86,68.0
57.87,68.0
57.88,59.0
57.89,70.0
57.9,75.0
57.91,63.0
57.92,72.0
57.93,82.0
57.94,65.0
57.95,72.0
57.96,81.0
57.97,56.0
57.98,68.0
57.99,68.0
58.0,81.0
58.01,59.0
58.02,79.0
58.03,73.0
58.04,71.0
58.05,68.0
58.06,58.0
58.07,71.0
58.08,81.0
58.09,87.0
58.1,71.0
58.11,92.0
58.12,98.0
58.13,58.0
58.14,67.0
58.15,70.0
58.16,70.0
58.17,61.0
58.18,93.0
58.19,77.0
58.2,75.0
58.21,57.0
58.22,74.0
58.23,70.0
58.24,82.0
58.25,65.0
58.26,79.0
58.27,80.0
58.28,81.0
58.29,86.0
58.3,72.0
58.31,74.0
58.32,71.0
58.33,68.0
58.34,72.0
58.35,75.0
58.36,72.0
58.37,80.0
58.38,81.0
58.39,84.0
58.4,83.0
58.41,81.0
58.42,85.0
58.43,67.0
58.44,67.0
58.45,81.0
58.46,74.0
58.47,76.0
58.48,64.0
58.49,60.0
58.5,74.0
58.51,62.0
58.52,72.0
58.53,70.0
58.54,86.0
58.55,68.0
58.56,87.0
58.57,76.0
58.58,79.0
58.59,66.0
58.6,67.0
58.61,60.0
58.62,81.0
58.63,65.0
58.64,79.0
58.65,65.0
58.66,63.0
58.67,82.0
58.68,60.0
58.69,66.0
58.7,81.0
58.71,70.0
58.72,62.0
58.73,72.0
58.74,89.0
58.75,77.0
58.76,56.0
58.77,79.0
58.78,63.0
58.79,67.0
58.8,66.0
58.81,64.0
58.82,68.0
58.83,70.0
58.84,66.0
58.85,75.0
58.86,63.0
58.87,71.0
58.88,68.0
58.89,63.0
58.9,55.0
58.91,57.0
58.92,68.0
58.93,64.0
58.94,72.0
58.95,64.0
58.96,69.0
58.97,85.0
58.98,59.0
58.99,63.0
59.0,75.0
59.01,61.0
59.02,70.0
59.03,68.0
59.04,80.0
59.05,77.0
59.06,90.0
59.07,76.0
59.08,75.0
59.09,72.0
59.1,75.0
59.11,55.0
59.12,60.0
59.13,63.0
59.14,65.0
59.15,69.0
59.16,59.0
59.17,73.0
59.18,68.0
59.19,73.0
59.2,67.0
59.21,88.0
59.22,79.0
59.23,67.0
59.24,64.0
59.25,77.0
59.26,75.0
59.27,86.0
59.28,65.0
59.29,68.0
59.3,55.0
59.31,72.0
59.32,61.0
59.33,66.0
59.34,82.0
59.35,67.0
59.36,81.0
59.37,82.0
59.38,65.0
59.39,69.0
59.4,69.0
59.41,70.0
59.42,74.0
59.43,82.0
59.44,62.0
59.45,58.0
59.46,71.0
59.47,49.0
59.48,81.0
59.49,77.0
59.5,65.0
59.51,68.0
59.52,60.0
59.53,65.0
59.54,69.0
59.55,78.0
59.56,83.0
59.57,68.0
59.58,73.0
59.59,97.0
59.6,59.0
59.61,57.0
59.62,57.0
59.63,68.0
59.64,83.0
59.65,71.0
59.66,69.0
59.67,79.0
59.68,64.0
59.69,69.0
59.7,83.0
59.71,63.0
59.72,80.0
59.73,55.0
59.74,76.0
59.75,62.0
59.76,78.0
59.77,86.0
59.78,79.0
59.79,60.0
59.8,80.0
59.81,66.0
59.82,84.0
59.83,66.0
59.84,64.0
59.85,74.0
59.86,78.0
59.87,63.0
59.88,76.0
59.89,69.0
59.9,76.0
59.91,71.0
59.92,70.0
59.93,77.0
59.94,68.0
59.95,80.0
59.96,70.0
59.97,70.0
59.98,60.0
59.99,71.0
60.0,72.0
60.01,59.0
60.02,70.0
60.03,65.0
60.04,61.0
60.05,81.0
60.06,73.0
60.07,63.0
60.08,68.0
60.09,83.0
60.1,82.0
60.11,78.0
60.12,71.0
60.13,67.0
60.14,82.0
60.15,74.0
60.16,86.0
60.17,63.0
60.18,69.0
60.19,64.0
60.2,72.0
60.21,78.0
60.22,69.0
60.23,74.0
60.24,74.0
60.25,73.0
60.26,63.0
60.27,77.0
60.28,70.0
60.29,77.0
60.3,67.0
60.31,72.0
60.32,66.0
60.33,88.0
60.34,75.0
60.35,64.0
60.36,83.0
60.37,82.0
60.38,77.0
60.39,62.0
60.4,73.0
60.41,72.0
60.42,88.0
60.43,66.0
60.44,73.0
60.45,74.0
60.46,79.0
60.47,75.0
60.48,89.0
60.49,73.0
60.5,77.0
60.51,83.0
60.52,74.0
60.53,50.0
60.54,53.0
60.55,64.0
60.56,63.0
60.57,79.0
60.58,65.0
60.59,77.0
60.6,69.0
60.61,82.0
60.62,72.0
60.63,66.0
60.64,77.0
60.65,64.0
60.66,67.0
60.67,64.0
60.68,76.0
60.69,72.0
60.7,71.0
60.71,72.0
60.72,63.0
60.73,82.0
60.74,80.0
60.75,73.0
60.76,80.0
60.77,79.0
60.78,69.0
60.79,71.0
60.8,62.0
60.81,68.0
60.82,71.0
60.83,73.0
60.84,70.0
60.85,84.0
60.86,76.0
60.87,60.0
60.88,78.0
60.89,66.0
60.9,52.0
60.91,68.0
60.92,76.0
60.93,67.0
60.94,82.0
60.95,76.0
60.96,80.0
60.97,90.0
60.98,77.0
60.99,80.0
61.0,69.0
61.01,70.0
61.02,68.0
61.03,66.0
61.04,56.0
61.05,74.0
61.06,71.0
61.07,64.0
61.08,84.0
61.09,77.0
61.1,72.0
61.11,64.0
61.12,82.0
61.13,71.0
61.14,72.0
61.15,76.0
61.16,63.0
61.17,72.0
61.18,62.0
61.19,72.0
61.2,81.0
61.21,70.0
61.22,68.0
61.23,84.0
61.24,77.0
61.25,63.0
61.26,82.0
61.27,66.0
61.28,74.0
61.29,81.0
61.3,78.0
61.31,79.0
61.32,81.0
61.33,82.0
61.34,60.0
61.35,66.0
61.36,71.0
61.37,72.0
61.38,57.0
61.39,68.0
61.4,67.0
61.41,73.0
61.42,68.0
61.43,65.0
61.44,75.0
61.45,84.0
61.46,73.0
61.47,75.0
61.48,62.0
61.49,56.0
61.5,71.0
61.51,76.0
61.52,70.0
61.53,71.0
61.54,67.0
61.55,76.0
61.56,68.0
61.57,85.0
61.58,85.0
61.59,89.0
61.6,89.0
61.61,67.0
61.62,67.0
61.63,77.0
61.64,64.0
61.65,77.0
61.66,78.0
61.67,74.0
61.68,92.0
61.69,60.0
61.7,82.0
61.71,66.0
61.72,83.0
61.73,75.0
61.74,72.0
61.75,94.0
61.76,79.0
61.77,101.0
61.78,92.0
61.79,99.0
61.8,107.0
61.81,97.0
61.82,118.0
61.83,94.0
61.84,91.0
61.85,86.0
61.86,86.0
61.87,83.0
61.88,93.0
61.89,82.0
61.9,101.0
61.91,71.0
61.92,68.0
61.93,80.0
61.94,92.0
61.95,89.0
61.96,74.0
61.97,84.0
61.98,91.0
61.99,85.0
62.0,89.0
62.01,89.0
62.02,88.0
62.03,96.0
62.04,90.0
62.05,88.0
62.06,86.0
62.07,71.0
62.08,76.0
62.09,74.0
62.1,63.0
62.11,77.0
62.12,73.0
62.13,66.0
62.14,89.0
62.15,75.0
62.16,59.0
62.17,70.0
62.18,55.0
62.19,90.0
62.2,78.0
62.21,83.0
62.22,62.0
62.23,70.0
62.24,71.0
62.25,72.0
62.26,68.0
62.27,63.0
62.28,68.0
62.29,77.0
62.3,75.0
62.31,64.0
62.32,64.0
62.33,65.0
62.34,77.0
62.35,69.0
62.36,77.0
62.37,70.0
62.38,74.0
62.39,76.0
62.4,72.0
62.41,62.0
62.42,79.0
62.43,79.0
62.44,64.0
62.45,95.0
62.46,68.0
62.47,78.0
62.48,74.0
62.49,79.0
62.5,67.0
62.51,67.0
62.52,71.0
62.53,69.0
62.54,76.0
62.55,71.0
62.56,83.0
62.57,69.0
62.58,65.0
62.59,68.0
62.6,68.0
62.61,67.0
62.62,69.0
62.63,74.0
62.64,74.0
62.65,70.0
62.66,71.0
62.67,68.0
62.68,69.0
62.69,80.0
62.7,63.0
62.71,74.0
62.72,54.0
62.73,70.0
62.74,65.0
62.75,72.0
62.76,71.0
62.77,68.0
62.78,72.0
62.79,66.0
62.8,63.0
62.81,73.0
62.82,67.0
62.83,70.0
62.84,72.0
62.85,62.0
62.86,69.0
62.87,82.0
62.88,80.0
62.89,88.0
62.9,74.0
62.91,67.0
62.92,67.0
62.93,66.0
62.94,72.0
62.95,65.0
62.96,89.0
62.97,68.0
62.98,76.0
62.99,71.0
63.0,89.0
63.01,62.0
63.02,80.0
63.03,87.0
63.04,79.0
63.05,76.0
63.06,66.0
63.07,75.0
63.08,61.0
63.09,76.0
63.1,72.0
63.11,70.0
63.12,74.0
63.13,76.0
63.14,68.0
63.15,64.0
63.16,75.0
63.17,65.0
63.18,86.0
63.19,76.0
63.2,65.0
63.21,73.0
63.22,71.0
63.23,75.0
63.24,60.0
63.25,64.0
63.26,82.0
63.27,66.0
63.28,72.0
63.29,72.0
63.3,73.0
63.31,63.0
63.32,77.0
63.33,70.0
63.34,83.0
63.35,66.0
63.36,71.0
63.37,57.0
63.38,73.0
63.39,57.0
63.4,74.0
63.41,80.0
63.42,63.0
63.43,78.0
63.44,77.0
63.45,78.0
63.46,66.0
63.47,76.0
63.48,70.0
63.49,78.0
63.5,67.0
63.51,71.0
63.52,67.0
63.53,82.0
63.54,80.0
63.55,78.0
63.56,86.0
63.57,57.0
63.58,83.0
63.59,86.0
63.6,90.0
63.61,60.0
63.62,82.0
63.63,81.0
63.64,68.0
63.65,69.0
63.66,79.0
63.67,58.0
63.68,74.0
63.69,67.0
63.7,66.0
63.71,83.0
63.72,69.0
63.73,77.0
63.74,69.0
63.75,68.0
63.76,68.0
63.77,71.0
63.78,60.0
63.79,64.0
63.8,76.0
63.81,73.0
63.82,76.0
63.83,85.0
63.84,81.0
63.85,70.0
63.86,60.0
63.87,83.0
63.88,66.0
63.89,80.0
63.9,73.0
63.91,80.0
63.92,72.0
63.93,66.0
63.94,81.0
63.95,60.0
63.96,66.0
63.97,76.0
63.98,75.0
63.99,75.0
64.0,53.0
64.01,85.0
64.02,63.0
64.03,81.0
64.04,71.0
64.05,68.0
64.06,78.0
64.07,68.0
64.08,80.0
64.09,72.0
64.1,91.0
64.11,64.0
64.12,66.0
64.13,71.0
64.14,60.0
64.15,65.0
64.16,62.0
64.17,81.0
64.18,76.0
64.19,69.0
64.2,67.0
64.21,61.0
64.22,83.0
64.23,79.0
64.24,71.0
64.25,58.0
64.26,82.0
64.27,82.0
64.28,72.0
64.29,87.0
64.3,63.0
64.31,81.0
64.32,67.0
64.33,70.0
64.34,78.0
64.35,66.0
64.36,65.0
64.37,76.0
64.38,55.0
64.39,60.0
64.4,79.0
64.41,71.0
64.42,75.0
64.43,64.0
64.44,82.0
64.45,82.0
64.46,69.0
64.47,70.0
64.48,67.0
64.49,71.0
64.5,89.0
64.51,71.0
64.52,65.0
64.53,83.0
64.54,83.0
64.55,69.0
64.56,80.0
64.57,82.0
64.58,87.0
64.59,84.0
64.6,65.0
64.61,64.0
64.62,65.0
64.63,63.0
64.64,55.0
64.65,65.0
64.66,79.0
64.67,76.0
64.68,71.0
64.69,81.0
64.7,78.0
64.71,80.0
64.72,78.0
64.73,73.0
64.74,82.0
64.75,57.0
64.76,68.0
64.77,87.0
64.78,75.0
64.79,93.0
64.8,79.0
64.81,83.0
64.82,88.0
64.83,91.0
64.84,86.0
64.85,79.0
64.86,64.0
64.87,70.0
64.88,87.0
64.89,85.0
64.9,68.0
64.91,89.0
64.92,76.0
64.93,87.0
64.94,76.0
64.95,86.0
64.96,75.0
64.97,69.0
64.98,77.0
64.99,83.0
65.0,76.0
65.01,77.0
65.02,100.0
65.03,88.0
65.04,76.0
65.05,65.0
65.06,94.0
65.07,97.0
65.08,104.0
65.09,87.0
65.1,89.0
65.11,103.0
65.12,89.0
65.13,87.0
65.14,101.0
65.15,107.0
65.16,78.0
65.17,77.0
65.18,79.0
65.19,76.0
65.2,78.0
65.21,79.0
65.22,82.0
65.23,82.0
65.24,99.0
65.25,97.0
65.26,89.0
65.27,76.0
65.28,82.0
65.29,84.0
65.3,96.0
65.31,76.0
65.32,94.0
65.33,82.0
65.34,83.0
65.35,96.0
65.36,76.0
65.37,86.0
65.38,69.0
65.39,86.0
65.4,77.0
65.41,61.0
65.42,77.0
65.43,71.0
65.44,69.0
65.45,68.0
65.46,72.0
65.47,65.0
65.48,80.0
65.49,72.0
65.5,59.0
65.51,61.0
65.52,69.0
65.53,72.0
65.54,69.0
65.55,88.0
65.56,72.0
65.57,79.0
65.58,67.0
65.59,74.0
65.6,68.0
65.61,88.0
65.62,80.0
65.63,80.0
65.64,69.0
65.65,78.0
65.66,71.0
65.67,76.0
65.68,96.0
65.69,87.0
65.7,71.0
65.71,74.0
65.72,74.0
65.73,71.0
65.74,69.0
65.75,82.0
65.76,82.0
65.77,75.0
65.78,83.0
65.79,67.0
65.8,64.0
65.81,73.0
65.82,80.0
65.83,92.0
65.84,77.0
65.85,86.0
65.86,78.0
65.87,71.0
65.88,68.0
65.89,49.0
65.9,79.0
65.91,71.0
65.92,70.0
65.93,80.0
65.94,75.0
65.95,69.0
65.96,79.0
65.97,74.0
65.98,70.0
65.99,79.0
66.0,86.0
66.01,81.0
66.02,81.0
66.03,63.0
66.04,60.0
66.05,63.0
66.06,79.0
66.07,73.0
66.08,75.0
66.09,73.0
66.1,82.0
66.11,73.0
66.12,70.0
66.13,83.0
66.14,92.0
66.15,75.0
66.16,86.0
66.17,58.0
66.18,76.0
66.19,58.0
66.2,70.0
66.21,59.0
66.22,75.0
66.23,76.0
66.24,62.0
66.25,63.0
66.26,67.0
66.27,67.0
66.28,72.0
66.29,70.0
66.3,70.0
66.31,60.0
66.32,93.0
66.33,87.0
66.34,75.0
66.35,74.0
66.36,64.0
66.37,95.0
66.38,73.0
66.39,68.0
66.4,84.0
66.41,72.0
66.42,61.0
66.43,80.0
66.44,66.0
66.45,75.0
66.46,77.0
66.47,71.0
66.48,72.0
66.49,72.0
66.5,65.0
66.51,62.0
66.52,69.0
66.53,73.0
66.54,71.0
66.55,69.0
66.56,59.0
66.57,88.0
66.58,68.0
66.59,66.0
66.6,70.0
66.61,65.0
66.62,69.0
66.63,77.0
66.64,80.0
66.65,83.0
66.66,86.0
66.67,83.0
66.68,69.0
66.69,78.0
66.7,62.0
66.71,70.0
66.72,93.0
66.73,78.0
66.74,77.0
66.75,80.0
66.76,59.0
66.77,69.0
66.78,71.0
66.79,72.0
66.8,80.0
66.81,67.0
66.82,65.0
66.83,65.0
66.84,87.0
66.85,73.0
66.86,84.0
66.87,77.0
66.88,80.0
66.89,79.0
66.9,74.0
66.91,80.0
66.92,56.0
66.93,83.0
66.94,85.0
66.95,68.0
66.96,75.0
66.97,63.0
66.98,78.0
66.99,74.0
67.0,68.0
67.01,76.0
67.02,71.0
67.03,82.0
67.04,72.0
67.05,79.0
67.06,76.0
67.07,64.0
67.08,82.0
67.09,58.0
67.1,79.0
67.11,65.0
67.12,74.0
67.13,69.0
67.14,81.0
67.15,84.0
67.16,71.0
67.17,75.0
67.18,68.0
67.19,63.0
67.2,69.0
67.21,70.0
67.22,77.0
67.23,61.0
67.24,63.0
67.25,81.0
67.26,75.0
67.27,59.0
67.28,73.0
67.29,75.0
67.3,69.0
67.31,71.0
67.32,76.0
67.33,73.0
67.34,65.0
67.35,73.0
67.36,85.0
67.37,74.0
67.38,62.0
67.39,67.0
67.4,79.0
67.41,66.0
67.42,72.0
67.43,73.0
67.44,62.0
67.45,65.0
67.46,77.0
67.47,78.0
67.48,64.0
67.49,77.0
67.5,71.0
67.51,73.0
67.52,75.0
67.53,67.0
67.54,68.0
67.55,78.0
67.56,68.0
67.57,77.0
67.58,65.0
67.59,57.0
67.6,58.0
67.61,69.0
67.62,65.0
67.63,74.0
67.64,72.0
67.65,74.0
67.66,84.0
67.67,75.0
67.68,78.0
67.69,85.0
67.7,72.0
67.71,63.0
67.72,74.0
67.73,72.0
67.74,76.0
67.75,52.0
67.76,61.0
67.77,69.0
67.78,53.0
67.79,72.0
67.8,67.0
67.81,76.0
67.82,56.0
67.83,78.0
67.84,76.0
67.85,75.0
67.86,77.0
67.87,68.0
67.88,71.0
67.89,75.0
67.9,60.0
67.91,58.0
67.92,73.0
67.93,74.0
67.94,81.0
67.95,74.0
67.96,56.0
67.97,73.0
67.98,64.0
67.99,87.0
68.0,73.0
68.01,57.0
68.02,66.0
68.03,86.0
68.04,64.0
68.05,65.0
68.06,76.0
68.07,77.0
68.08,64.0
68.09,69.0
68.1,82.0
68.11,51.0
68.12,59.0
68.13,87.0
68.14,81.0
68.15,81.0
68.16,71.0
68.17,83.0
68.18,84.0
68.19,70.0
68.2,71.0
68.21,77.0
68.22,69.0
68.23,75.0
68.24,62.0
68.25,68.0
68.26,73.0
68.27,69.0
68.28,77.0
68.29,77.0
68.3,83.0
68.31,60.0
68.32,82.0
68.33,69.0
68.34,77.0
68.35,90.0
68.36,62.0
68.37,66.0
68.38,73.0
68.39,68.0
68.4,74.0
68.41,80.0
68.42,91.0
68.43,70.0
68.44,89.0
68.45,61.0
68.46,60.0
68.47,71.0
68.48,79.0
68.49,65.0
68.5,80.0
68.51,79.0
68.52,72.0
68.53,80.0
68.54,74.0
68.55,70.0
68.56,74.0
68.57,76.0
68.58,66.0
68.59,71.0
68.6,79.0
68.61,71.0
68.62,75.0
68.63,75.0
68.64,73.0
68.65,64.0
68.66,49.0
68.67,68.0
68.68,62.0
68.69,86.0
68.7,72.0
68.71,73.0
68.72,87.0
68.73,62.0
68.74,68.0
68.75,76.0
68.76,75.0
68.77,61.0
68.78,71.0
68.79,65.0
68.8,61.0
68.81,79.0
68.82,89.0
68.83,69.0
68.84,88.0
68.85,82.0
68.86,66.0
68.87,69.0
68.88,72.0
68.89,79.0
68.9,71.0
68.91,77.0
68.92,71.0
68.93,75.0
68.94,68.0
68.95,90.0
68.96,77.0
68.97,74.0
68.98,70.0
68.99,70.0
69.0,74.0
69.01,65.0
69.02,78.0
69.03,58.0
69.04,70.0
69.05,70.0
69.06,78.0
69.07,72.0
69.08,76.0
69.09,84.0
69.1,76.0
69.11,68.0
69.12,82.0
69.13,78.0
69.14,67.0
69.15,64.0
69.16,80.0
69.17,71.0
69.18,79.0
69.19,70.0
69.2,68.0
69.21,78.0
69.22,65.0
69.23,65.0
69.24,59.0
69.25,57.0
69.26,57.0
69.27,71.0
69.28,61.0
69.29,73.0
69.3,70.0
69.31,88.0
69.32,72.0
69.33,65.0
69.34,73.0
69.35,89.0
69.36,66.0
69.37,63.0
69.38,76.0
69.39,65.0
69.4,81.0
69.41,60.0
69.42,64.0
69.43,63.0
69.44,82.0
69.45,69.0
69.46,66.0
69.47,63.0
69.48,66.0
69.49,62.0
69.5,70.0
69.51,70.0
69.52,71.0
69.53,66.0
69.54,72.0
69.55,62.0
69.56,68.0
69.57,68.0
69.58,84.0
69.59,76.0
69.6,71.0
69.61,67.0
69.62,65.0
69.63,76.0
69.64,85.0
69.65,77.0
69.66,72.0
69.67,73.0
69.68,85.0
69.69,80.0
69.7,68.0
69.71,56.0
69.72,61.0
69.73,74.0
69.74,73.0
69.75,77.0
69.76,82.0
69.77,80.0
69.78,63.0
69.79,65.0
69.8,69.0
69.81,65.0
69.82,84.0
69.83,74.0
69.84,77.0
69.85,65.0
69.86,68.0
69.87,79.0
69.88,76.0
69.89,65.0
69.9,58.0
69.91,69.0
69.92,70.0
69.93,83.0
69.94,64.0
69.95,70.0
69.96,66.0
69.97,70.0
69.98,68.0
69.99,72.0
70.0,76.0
70.01,55.0
70.02,65.0
70.03,83.0
70.04,79.0
70.05,58.0
70.06,68.0
70.07,61.0
70.08,75.0
70.09,68.0
70.1,59.0
70.11,80.0
70.12,73.0
70.13,84.0
70.14,63.0
70.15,59.0
70.16,81.0
70.17,69.0
70.18,85.0
70.19,73.0
70.2,73.0
70.21,60.0
70.22,77.0
70.23,56.0
70.24,68.0
70.25,69.0
70.26,63.0
70.27,64.0
70.28,79.0
70.29,80.0
70.3,72.0
70.31,78.0
70.32,54.0
70.33,78.0
70.34,62.0
70.35,71.0
70.36,72.0
70.37,69.0
70.38,80.0
70.39,65.0
70.4,70.0
70.41,56.0
70.42,62.0
70.43,65.0
70.44,62.0
70.45,74.0
70.46,54.0
70.47,93.0
70.48,65.0
70.49,63.0
70.5,79.0
70.51,58.0
70.52,76.0
70.53,67.0
70.54,79.0
70.55,72.0
70.56,61.0
70.57,70.0
70.58,70.0
70.59,68.0
70.6,59.0
70.61,62.0
70.62,72.0
70.63,70.0
70.64,77.0
70.65,68.0
70.66,69.0
70.67,86.0
70.68,55.0
70.69,80.0
70.7,80.0
70.71,74.0
70.72,62.0
70.73,75.0
70.74,75.0
70.75,68.0
70.76,58.0
70.77,66.0
70.78,85.0
70.79,62.0
70.8,70.0
70.81,72.0
70.82,68.0
70.83,78.0
70.84,77.0
70.85,69.0
70.86,78.0
70.87,69.0
70.88,66.0
70.89,66.0
70.9,71.0
70.91,63.0
70.92,52.0
70.93,54.0
70.94,72.0
70.95,86.0
70.96,78.0
70.97,74.0
70.98,85.0
70.99,73.0
71.0,66.0
71.01,69.0
71.02,77.0
71.03,82.0
71.04,91.0
71.05,85.0
71.06,68.0
71.07,73.0
71.08,77.0
71.09,68.0
71.1,91.0
71.11,77.0
71.12,65.0
71.13,79.0
71.14,78.0
71.15,81.0
71.16,72.0
71.17,87.0
71.18,73.0
71.19,87.0
71.2,78.0
71.21,87.0
71.22,92.0
71.23,83.0
71.24,77.0
71.25,83.0
71.26,76.0
71.27,80.0
71.28,79.0
71.29,85.0
71.3,86.0
71.31,90.0
71.32,85.0
71.33,67.0
71.34,97.0
71.35,103.0
71.36,88.0
71.37,86.0
71.38,101.0
71.39,88.0
71.4,75.0
71.41,91.0
71.42,74.0
71.43,80.0
71.44,104.0
71.45,85.0
71.46,77.0
71.47,73.0
71.48,74.0
71.49,78.0
71.5,71.0
71.51,60.0
71.52,70.0
71.53,76.0
71.54,73.0
71.55,81.0
71.56,95.0
71.57,59.0
71.58,73.0
71.59,64.0
71.6,67.0
71.61,87.0
71.62,85.0
71.63,104.0
71.64,76.0
71.65,84.0
71.66,87.0
71.67,66.0
71.68,85.0
71.69,83.0
71.7,70.0
71.71,79.0
71.72,84.0
71.73,80.0
71.74,97.0
71.75,82.0
71.76,73.0
71.77,78.0
71.78,76.0
71.79,81.0
71.8,62.0
71.81,81.0
71.82,54.0
71.83,62.0
71.84,64.0
71.85,86.0
71.86,76.0
71.87,79.0
71.88,82.0
71.89,77.0
71.9,69.0
71.91,69.0
71.92,47.0
71.93,70.0
71.94,64.0
71.95,78.0
71.96,71.0
71.97,69.0
71.98,59.0
71.99,73.0
72.0,76.0
72.01,74.0
72.02,73.0
72.03,73.0
72.04,81.0
72.05,63.0
72.06,70.0
72.07,57.0
72.08,68.0
72.09,94.0
72.1,62.0
72.11,78.0
72.12,72.0
72.13,80.0
72.14,84.0
72.15,69.0
72.16,89.0
72.17,75.0
72.18,72.0
72.19,58.0
72.2,59.0
72.21,79.0
72.22,75.0
72.23,72.0
72.24,63.0
72.25,88.0
72.26,83.0
72.27,64.0
72.28,64.0
72.29,54.0
72.3,73.0
72.31,63.0
72.32,67.0
72.33,65.0
72.34,77.0
72.35,60.0
72.36,84.0
72.37,74.0
72.38,83.0
72.39,81.0
72.4,70.0
72.41,80.0
72.42,74.0
72.43,82.0
72.44,63.0
72.45,69.0
72.46,85.0
72.47,82.0
72.48,74.0
72.49,84.0
72.5,62.0
72.51,73.0
72.52,70.0
72.53,72.0
72.54,69.0
72.55,69.0
72.56,72.0
72.57,84.0
72.58,63.0
72.59,79.0
72.6,66.0
72.61,72.0
72.62,72.0
72.63,63.0
72.64,75.0
72.65,69.0
72.66,76.0
72.67,66.0
72.68,81.0
72.69,64.0
72.7,65.0
72.71,70.0
72.72,73.0
72.73,72.0
72.74,73.0
72.75,70.0
72.76,76.0
72.77,78.0
72.78,86.0
72.79,80.0
72.8,76.0
72.81,72.0
72.82,72.0
72.83,70.0
72.84,71.0
72.85,77.0
72.86,81.0
72.87,77.0
72.88,75.0
72.89,70.0
72.9,75.0
72.91,78.0
72.92,85.0
72.93,79.0
72.94,59.0
72.95,63.0
72.96,82.0
72.97,75.0
72.98,83.0
72.99,72.0
73.0,73.0
73.01,79.0
73.02,74.0
73.03,71.0
73.04,67.0
73.05,79.0
73.06,69.0
73.07,85.0
73.08,59.0
73.09,64.0
73.1,67.0
73.11,70.0
73.12,72.0
73.13,64.0
73.14,81.0
73.15,76.0
73.16,73.0
73.17,57.0
73.18,76.0
73.19,76.0
73.2,79.0
73.21,90.0
73.22,77.0
73.23,77.0
73.24,75.0
73.25,80.0
73.26,63.0
73.27,77.0
73.28,66.0
73.29,67.0
73.3,67.0
73.31,65.0
73.32,78.0
73.33,55.0
73.34,73.0
73.35,68.0
73.36,63.0
73.37,79.0
73.38,71.0
73.39,55.0
73.4,69.0
73.41,81.0
73.42,92.0
73.43,73.0
73.44,72.0
73.45,85.0
73.46,53.0
73.47,67.0
73.48,70.0
73.49,76.0
73.5,79.0
73.51,62.0
73.52,70.0
73.53,66.0
73.54,70.0
73.55,74.0
73.56,80.0
73.57,68.0
73.58,79.0
73.59,67.0
73.6,73.0
73.61,75.0
73.62,67.0
73.63,67.0
73.64,70.0
73.65,76.0
73.66,87.0
73.67,69.0
73.68,62.0
73.69,66.0
73.7,67.0
73.71,63.0
73.72,76.0
73.73,61.0
73.74,55.0
73.75,61.0
73.76,63.0
73.77,86.0
73.78,70.0
73.79,83.0
73.8,86.0
73.81,69.0
73.82,70.0
73.83,82.0
73.84,73.0
73.85,78.0
73.86,81.0
73.87,88.0
73.88,83.0
73.89,72.0
73.9,82.0
73.91,79.0
73.92,65.0
73.93,78.0
73.94,86.0
73.95,83.0
73.96,77.0
73.97,79.0
73.98,58.0
73.99,68.0
74.0,80.0
74.01,73.0
74.02,71.0
74.03,76.0
74.04,76.0
74.05,84.0
74.06,89.0
74.07,60.0
74.08,65.0
74.09,63.0
74.1,60.0
74.11,69.0
74.12,80.0
74.13,63.0
74.14,62.0
74.15,67.0
74.16,84.0
74.17,77.0
74.18,61.0
74.19,86.0
74.2,58.0
74.21,85.0
74.22,81.0
74.23,88.0
74.24,59.0
74.25,79.0
74.26,57.0
74.27,71.0
74.28,80.0
74.29,76.0
74.3,85.0
74.31,67.0
74.32,72.0
74.33,80.0
74.34,64.0
74.35,64.0
74.36,74.0
74.37,70.0
74.38,63.0
74.39,64.0
74.4,66.0
74.41,65.0
74.42,76.0
74.43,64.0
74.44,64.0
74.45,79.0
74.46,49.0
74.47,82.0
74.48,75.0
74.49,71.0
74.5,93.0
74.51,60.0
74.52,74.0
74.53,57.0
74.54,81.0
74.55,56.0
74.56,68.0
74.57,66.0
74.58,58.0
74.59,66.0
74.6,68.0
74.61,69.0
74.62,64.0
74.63,64.0
74.64,66.0
74.65,71.0
74.66,75.0
74.67,75.0
74.68,70.0
74.69,58.0
74.7,60.0
74.71,72.0
74.72,89.0
74.73,65.0
74.74,77.0
74.75,60.0
74.76,67.0
74.77,65.0
74.78,83.0
74.79,66.0
74.8,73.0
74.81,79.0
74.82,74.0
74.83,66.0
74.84,64.0
74.85,68.0
74.86,67.0
74.87,80.0
74.88,65.0
74.89,79.0
74.9,59.0
74.91,62.0
74.92,70.0
74.93,66.0
74.94,72.0
74.95,75.0
74.96,83.0
74.97,69.0
74.98,64.0
74.99,70.0
75.0,89.0
75.01,71.0
75.02,69.0
75.03,86.0
75.04,83.0
75.05,67.0
75.06,64.0
75.07,48.0
75.08,65.0
75.09,80.0
75.1,62.0
75.11,74.0
75.12,77.0
75.13,65.0
75.14,70.0
75.15,81.0
75.16,59.0
75.17,66.0
75.18,83.0
75.19,74.0
75.2,82.0
75.21,59.0
75.22,68.0
75.23,81.0
75.24,70.0
75.25,84.0
75.26,66.0
75.27,80.0
75.28,85.0
75.29,79.0
75.3,86.0
75.31,75.0
75.32,58.0
75.33,58.0
75.34,84.0
75.35,62.0
75.36,76.0
75.37,61.0
75.38,70.0
75.39,63.0
75.4,87.0
75.41,85.0
75.42,74.0
75.43,75.0
75.44,67.0
75.45,82.0
75.46,74.0
75.47,70.0
75.48,87.0
75.49,72.0
75.5,70.0
75.51,80.0
75.52,80.0
75.53,91.0
75.54,86.0
75.55,79.0
75.56,73.0
75.57,74.0
75.58,79.0
75.59,70.0
75.6,74.0
75.61,71.0
75.62,63.0
75.63,81.0
75.64,61.0
75.65,63.0
75.66,79.0
75.67,79.0
75.68,72.0
75.69,70.0
75.7,76.0
75.71,76.0
75.72,85.0
75.73,60.0
75.74,73.0
75.75,70.0
75.76,86.0
75.77,58.0
75.78,77.0
75.79,70.0
75.8,80.0
75.81,71.0
75.82,66.0
75.83,60.0
75.84,63.0
75.85,64.0
75.86,65.0
75.87,82.0
75.88,77.0
75.89,74.0
75.9,71.0
75.91,76.0
75.92,63.0
75.93,82.0
75.94,76.0
75.95,59.0
75.96,87.0
75.97,65.0
75.98,83.0
75.99,57.0
76.0,72.0
76.01,68.0
76.02,69.0
76.03,83.0
76.04,63.0
76.05,80.0
76.06,62.0
76.07,86.0
76.08,70.0
76.09,73.0
76.1,80.0
76.11,73.0
76.12,82.0
76.13,76.0
76.14,63.0
76.15,57.0
76.16,70.0
76.17,68.0
76.18,65.0
76.19,75.0
76.2,63.0
76.21,70.0
76.22,70.0
76.23,67.0
76.24,75.0
76.25,80.0
76.26,57.0
76.27,80.0
76.28,61.0
76.29,65.0
76.3,79.0
76.31,61.0
76.32,78.0
76.33,71.0
76.34,71.0
76.35,65.0
76.36,82.0
76.37,76.0
76.38,81.0
76.39,58.0
76.4,80.0
76.41,81.0
76.42,75.0
76.43,79.0
76.44,61.0
76.45,70.0
76.46,93.0
76.47,68.0
76.48,85.0
76.49,74.0
76.5,62.0
76.51,81.0
76.52,84.0
76.53,91.0
76.54,75.0
76.55,75.0
76.56,81.0
76.57,63.0
76.58,66.0
76.59,71.0
76.6,59.0
76.61,74.0
76.62,74.0
76.63,81.0
76.64,63.0
76.65,72.0
76.66,88.0
76.67,78.0
76.68,80.0
76.69,72.0
76.7,79.0
76.71,68.0
76.72,77.0
76.73,87.0
76.74,67.0
76.75,74.0
76.76,64.0
76.77,72.0
76.78,70.0
76.79,78.0
76.8,81.0
76.81,67.0
76.82,85.0
76.83,66.0
76.84,77.0
76.85,62.0
76.86,62.0
76.87,92.0
76.88,80.0
76.89,60.0
76.9,83.0
76.91,64.0
76.92,71.0
76.93,53.0
76.94,68.0
76.95,70.0
76.96,68.0
76.97,65.0
76.98,68.0
76.99,73.0
77.0,55.0
77.01,62.0
77.02,64.0
77.03,61.0
77.04,76.0
77.05,90.0
77.06,66.0
77.07,59.0
77.08,59.0
77.09,57.0
77.1,67.0
77.11,77.0
77.12,64.0
77.13,76.0
77.14,72.0
77.15,81.0
77.16,55.0
77.17,75.0
77.18,73.0
77.19,87.0
77.2,78.0
77.21,55.0
77.22,71.0
77.23,66.0
77.24,68.0
77.25,73.0
77.26,75.0
77.27,73.0
77.28,80.0
77.29,66.0
77.3,74.0
77.31,85.0
77.32,70.0
77.33,71.0
77.34,62.0
77.35,66.0
77.36,74.0
77.37,78.0
77.38,75.0
77.39,67.0
77.4,56.0
77.41,79.0
77.42,68.0
77.43,74.0
77.44,79.0
77.45,74.0
77.46,68.0
77.47,67.0
77.48,75.0
77.49,77.0
77.5,74.0
77.51,61.0
77.52,90.0
77.53,70.0
77.54,71.0
77.55,71.0
77.56,88.0
77.57,65.0
77.58,71.0
77.59,69.0
77.6,78.0
77.61,75.0
77.62,78.0
77.63,81.0
77.64,64.0
77.65,60.0
77.66,80.0
77.67,77.0
77.68,72.0
77.69,65.0
77.7,69.0
77.71,65.0
77.72,81.0
77.73,64.0
77.74,74.0
77.75,72.0
77.76,66.0
77.77,78.0
77.78,78.0
77.79,80.0
77.8,80.0
77.81,63.0
77.82,69.0
77.83,60.0
77.84,78.0
77.85,77.0
77.86,83.0
77.87,70.0
77.88,83.0
77.89,70.0
77.9,60.0
77.91,73.0
77.92,60.0
77.93,76.0
77.94,72.0
77.95,66.0
77.96,87.0
77.97,71.0
77.98,69.0
77.99,75.0
78.0,84.0
78.01,86.0
78.02,55.0
78.03,62.0
78.04,81.0
78.05,60.0
78.06,82.0
78.07,68.0
78.08,66.0
78.09,76.0
78.1,67.0
78.11,63.0
78.12,76.0
78.13,59.0
78.14,72.0
78.15,79.0
78.16,80.0
78.17,77.0
78.18,84.0
78.19,87.0
78.2,62.0
78.21,83.0
78.22,75.0
78.23,70.0
78.24,70.0
78.25,58.0
78.26,82.0
78.27,91.0
78.28,73.0
78.29,74.0
78.3,78.0
78.31,80.0
78.32,78.0
78.33,76.0
78.34,71.0
78.35,58.0
78.36,69.0
78.37,62.0
78.38,65.0
78.39,79.0
78.4,79.0
78.41,75.0
78.42,62.0
78.43,76.0
78.44,81.0
78.45,79.0
78.46,68.0
78.47,74.0
78.48,67.0
78.49,63.0
78.5,71.0
78.51,66.0
78.52,66.0
78.53,70.0
78.54,67.0
78.55,81.0
78.56,52.0
78.57,86.0
78.58,71.0
78.59,68.0
78.6,68.0
78.61,74.0
78.62,77.0
78.63,61.0
78.64,59.0
78.65,61.0
78.66,73.0
78.67,70.0
78.68,53.0
78.69,78.0
78.7,70.0
78.71,74.0
78.72,65.0
78.73,72.0
78.74,79.0
78.75,57.0
78.76,77.0
78.77,80.0
78.78,79.0
78.79,67.0
78.8,76.0
78.81,75.0
78.82,82.0
78.83,77.0
78.84,77.0
78.85,78.0
78.86,78.0
78.87,74.0
78.88,91.0
78.89,75.0
78.9,81.0
78.91,69.0
78.92,75.0
78.93,67.0
78.94,85.0
78.95,84.0
78.96,73.0
78.97,71.0
78.98,70.0
78.99,84.0
79.0,70.0
79.01,68.0
79.02,82.0
79.03,73.0
79.04,75.0
79.05,62.0
79.06,82.0
79.07,85.0
79.08,66.0
79.09,67.0
79.1,74.0
79.11,79.0
79.12,50.0
79.13,71.0
79.14,68.0
79.15,72.0
79.16,67.0
79.17,77.0
79.18,69.0
79.19,85.0
79.2,62.0
79.21,60.0
79.22,80.0
79.23,67.0
79.24,75.0
79.25,56.0
79.26,82.0
79.27,61.0
79.28,60.0
79.29,73.0
79.3,79.0
79.31,82.0
79.32,81.0
79.33,74.0
79.34,77.0
79.35,72.0
79.36,80.0
79.37,74.0
79.38,82.0
79.39,75.0
79.4,65.0
79.41,78.0
79.42,64.0
79.43,77.0
79.44,89.0
79.45,74.0
79.46,75.0
79.47,55.0
79.48,56.0
79.49,83.0
79.5,71.0
79.51,69.0
79.52,71.0
79.53,63.0
79.54,64.0
79.55,74.0
79.56,70.0
79.57,76.0
79.58,77.0
79.59,74.0
79.6,69.0
79.61,71.0
79.62,79.0
79.63,61.0
79.64,66.0
79.65,78.0
79.66,68.0
79.67,80.0
79.68,67.0
79.69,71.0
79.7,68.0
79.71,83.0
79.72,61.0
79.73,60.0
79.74,63.0
79.75,90.0
79.76,67.0
79.77,74.0
79.78,84.0
79.79,65.0
79.8,82.0
79.81,67.0
79.82,73.0
79.83,60.0
79.84,67.0
79.85,61.0
79.86,63.0
79.87,67.0
79.88,89.0
79.89,65.0
79.9,69.0
79.91,57.0
79.92,68.0
79.93,89.0
79.94,79.0
79.95,82.0
79.96,70.0
79.97,78.0
79.98,72.0
79.99,75.0
80.0,66.0
80.01,80.0
80.02,73.0
80.03,56.0
80.04,69.0
80.05,52.0
80.06,81.0
80.07,69.0
80.08,80.0
80.09,80.0
80.1,86.0
80.11,79.0
80.12,58.0
80.13,72.0
80.14,88.0
80.15,54.0
80.16,74.0
80.17,71.0
80.18,78.0
80.19,55.0
80.2,53.0
80.21,75.0
80.22,65.0
80.23,76.0
80.24,59.0
80.25,64.0
80.26,73.0
80.27,66.0
80.28,81.0
80.29,70.0
80.3,73.0
80.31,55.0
80.32,81.0
80.33,75.0
80.34,75.0
80.35,67.0
80.36,71.0
80.37,66.0
80.38,60.0
80.39,63.0
80.4,69.0
80.41,88.0
80.42,78.0
80.43,82.0
80.44,76.0
80.45,85.0
80.46,76.0
80.47,74.0
80.48,82.0
80.49,66.0
80.5,65.0
80.51,72.0
80.52,82.0
80.53,76.0
80.54,77.0
80.55,64.0
80.56,54.0
80.57,78.0
80.58,75.0
80.59,68.0
80.6,90.0
80.61,55.0
80.62,70.0
80.63,67.0
80.64,75.0
80.65,68.0
80.66,71.0
80.67,62.0
80.68,84.0
80.69,72.0
80.7,64.0
80.71,69.0
80.72,78.0
80.73,60.0
80.74,64.0
80.75,64.0
80.76,80.0
80.77,59.0
80.78,81.0
80.79,62.0
80.8,69.0
80.81,62.0
80.82,65.0
80.83,57.0
80.84,61.0
80.85,84.0
80.86,61.0
80.87,82.0
80.88,75.0
80.89,89.0
80.9,78.0
80.91,79.0
80.92,63.0
80.93,78.0
80.94,61.0
80.95,75.0
80.96,73.0
80.97,69.0
80.98,83.0
80.99,64.0
81.0,64.0
81.01,53.0
81.02,69.0
81.03,70.0
81.04,64.0
81.05,64.0
81.06,85.0
81.07,52.0
81.08,65.0
81.09,69.0
81.1,78.0
81.11,68.0
81.12,77.0
81.13,84.0
81.14,74.0
81.15,72.0
81.16,77.0
81.17,73.0
81.18,70.0
81.19,67.0
81.2,93.0
81.21,67.0
81.22,68.0
81.23,56.0
81.24,81.0
81.25,73.0
81.26,71.0
81.27,61.0
81.28,60.0
81.29,76.0
81.3,68.0
81.31,84.0
81.32,81.0
81.33,61.0
81.34,70.0
81.35,68.0
81.36,92.0
81.37,84.0
81.38,68.0
81.39,76.0
81.4,77.0
81.41,93.0
81.42,75.0
81.43,87.0
81.44,87.0
81.45,80.0
81.46,82.0
81.47,68.0
81.48,86.0
81.49,80.0
81.5,78.0
81.51,65.0
81.52,61.0
81.53,80.0
81.54,76.0
81.55,71.0
81.56,73.0
81.57,68.0
81.58,78.0
81.59,63.0
81.6,84.0
81.61,69.0
81.62,84.0
81.63,86.0
81.64,67.0
81.65,70.0
81.66,71.0
81.67,73.0
81.68,78.0
81.69,66.0
81.7,81.0
81.71,68.0
81.72,68.0
81.73,71.0
81.74,82.0
81.75,79.0
81.76,78.0
81.77,63.0
81.78,79.0
81.79,64.0
81.8,69.0
81.81,77.0
81.82,78.0
81.83,60.0
81.84,73.0
81.85,70.0
81.86,61.0
81.87,77.0
81.88,72.0
81.89,82.0
81.9,69.0
81.91,64.0
81.92,77.0
81.93,60.0
81.94,80.0
81.95,82.0
81.96,96.0
81.97,67.0
81.98,78.0
81.99,80.0
82.0,84.0
82.01,81.0
82.02,81.0
82.03,66.0
82.04,62.0
82.05,70.0
82.06,63.0
82.07,80.0
82.08,82.0
82.09,56.0
82.1,83.0
82.11,78.0
82.12,70.0
82.13,75.0
82.14,90.0
82.15,71.0
82.16,91.0
82.17,77.0
82.18,74.0
82.19,66.0
82.2,63.0
82.21,73.0
82.22,89.0
82.23,83.0
82.24,75.0
82.25,75.0
82.26,88.0
82.27,62.0
82.28,79.0
82.29,72.0
82.3,75.0
82.31,72.0
82.32,66.0
82.33,66.0
82.34,70.0
82.35,79.0
82.36,70.0
82.37,64.0
82.38,86.0
82.39,74.0
82.4,77.0
82.41,75.0
82.42,74.0
82.43,78.0
82.44,60.0
82.45,82.0
82.46,64.0
82.47,62.0
82.48,63.0
82.49,89.0
82.5,70.0
82.51,65.0
82.52,57.0
82.53,82.0
82.54,70.0
82.55,78.0
82.56,71.0
82.57,90.0
82.58,83.0
82.59,64.0
82.6,84.0
82.61,65.0
82.62,83.0
82.63,96.0
82.64,77.0
82.65,78.0
82.66,75.0
82.67,59.0
82.68,65.0
82.69,75.0
82.7,67.0
82.71,63.0
82.72,82.0
82.73,67.0
82.74,62.0
82.75,69.0
82.76,59.0
82.77,94.0
82.78,76.0
82.79,64.0
82.8,73.0
82.81,88.0
82.82,60.0
82.83,77.0
82.84,81.0
82.85,67.0
82.86,72.0
82.87,75.0
82.88,67.0
82.89,78.0
82.9,68.0
82.91,66.0
82.92,71.0
82.93,79.0
82.94,71.0
82.95,71.0
82.96,70.0
82.97,58.0
82.98,77.0
82.99,66.0
83.0,62.0
83.01,64.0
83.02,80.0
83.03,72.0
83.04,81.0
83.05,73.0
83.06,74.0
83.07,62.0
83.08,76.0
83.09,84.0
83.1,73.0
83.11,74.0
83.12,61.0
83.13,62.0
83.14,71.0
83.15,93.0
83.16,73.0
83.17,73.0
83.18,72.0
83.19,70.0
83.2,70.0
83.21,82.0
83.22,73.0
83.23,78.0
83.24,72.0
83.25,76.0
83.26,79.0
83.27,88.0
83.28,79.0
83.29,87.0
83.3,67.0
83.31,75.0
83.32,63.0
83.33,78.0
83.34,55.0
83.35,73.0
83.36,83.0
83.37,67.0
83.38,88.0
83.39,75.0
83.4,91.0
83.41,62.0
83.42,68.0
83.43,72.0
83.44,80.0
83.45,91.0
83.46,77.0
83.47,68.0
83.48,81.0
83.49,85.0
83.5,98.0
83.51,70.0
83.52,73.0
83.53,81.0
83.54,97.0
83.55,78.0
83.56,91.0
83.57,71.0
83.58,75.0
83.59,72.0
83.6,78.0
83.61,74.0
83.62,87.0
83.63,77.0
83.64,69.0
83.65,95.0
83.66,89.0
83.67,74.0
83.68,88.0
83.69,89.0
83.7,74.0
83.71,70.0
83.72,60.0
83.73,74.0
83.74,81.0
83.75,73.0
83.76,73.0
83.77,77.0
83.78,83.0
83.79,72.0
83.8,62.0
83.81,73.0
83.82,76.0
83.83,76.0
83.84,71.0
83.85,73.0
83.86,84.0
83.87,66.0
83.88,72.0
83.89,65.0
83.9,60.0
83.91,64.0
83.92,83.0
83.93,68.0
83.94,70.0
83.95,83.0
83.96,73.0
83.97,72.0
83.98,74.0
83.99,67.0
84.0,83.0
84.01,70.0
84.02,76.0
84.03,75.0
84.04,63.0
84.05,65.0
84.06,76.0
84.07,66.0
84.08,76.0
84.09,81.0
84.1,77.0
84.11,61.0
84.12,63.0
84.13,76.0
84.14,77.0
84.15,81.0
84.16,64.0
84.17,71.0
84.18,78.0
84.19,67.0
84.2,67.0
84.21,82.0
84.22,58.0
84.23,76.0
84.24,68.0
84.25,70.0
84.26,75.0
84.27,58.0
84.28,88.0
84.29,70.0
84.3,75.0
84.31,82.0
84.32,70.0
84.33,85.0
84.34,62.0
84.35,68.0
84.36,72.0
84.37,80.0
84.38,75.0
84.39,77.0
84.4,70.0
84.41,79.0
84.42,79.0
84.43,74.0
84.44,68.0
84.45,73.0
84.46,76.0
84.47,62.0
84.48,76.0
84.49,42.0
84.5,79.0
84.51,77.0
84.52,85.0
84.53,68.0
84.54,72.0
84.55,75.0
84.56,62.0
84.57,74.0
84.58,70.0
84.59,82.0
84.6,86.0
84.61,81.0
84.62,66.0
84.63,67.0
84.64,85.0
84.65,64.0
84.66,81.0
84.67,66.0
84.68,83.0
84.69,48.0
84.7,82.0
84.71,71.0
84.72,68.0
84.73,83.0
84.74,52.0
84.75,70.0
84.76,67.0
84.77,74.0
84.78,58.0
84.79,83.0
84.8,81.0
84.81,62.0
84.82,68.0
84.83,87.0
84.84,66.0
84.85,57.0
84.86,93.0
84.87,71.0
84.88,80.0
84.89,104.0
84.9,60.0
84.91,78.0
84.92,77.0
84.93,65.0
84.94,75.0
84.95,70.0
84.96,90.0
84.97,62.0
84.98,79.0
84.99,87.0
85.0,67.0
85.01,70.0
85.02,78.0
85.03,64.0
85.04,64.0
85.05,74.0
85.06,78.0
85.07,68.0
85.08,84.0
85.09,63.0
85.1,74.0
85.11,83.0
85.12,59.0
85.13,69.0
85.14,82.0
85.15,75.0
85.16,69.0
85.17,56.0
85.18,68.0
85.19,81.0
85.2,72.0
85.21,75.0
85.22,78.0
85.23,57.0
85.24,70.0
85.25,80.0
85.26,86.0
85.27,77.0
85.28,83.0
85.29,77.0
85.3,74.0
85.31,63.0
85.32,76.0
85.33,84.0
85.34,61.0
85.35,86.0
85.36,84.0
85.37,104.0
85.38,81.0
85.39,91.0
85.4,93.0
85.41,93.0
85.42,75.0
85.43,96.0
85.44,105.0
85.45,108.0
85.46,98.0
85.47,93.0
85.48,79.0
85.49,102.0
85.5,87.0
85.51,80.0
85.52,93.0
85.53,68.0
85.54,86.0
85.55,96.0
85.56,85.0
85.57,75.0
85.58,73.0
85.59,93.0
85.6,67.0
85.61,70.0
85.62,78.0
85.63,80.0
85.64,82.0
85.65,86.0
85.66,74.0
85.67,106.0
85.68,98.0
85.69,98.0
85.7,89.0
85.71,79.0
85.72,79.0
85.73,80.0
85.74,76.0
85.75,65.0
85.76,64.0
85.77,77.0
85.78,91.0
85.79,65.0
85.8,85.0
85.81,68.0
85.82,75.0
85.83,75.0
85.84,92.0
85.85,75.0
85.86,72.0
85.87,66.0
85.88,87.0
85.89,61.0
85.9,72.0
85.91,68.0
85.92,71.0
85.93,69.0
85.94,79.0
85.95,54.0
85.96,74.0
85.97,70.0
85.98,79.0
85.99,81.0
86.0,71.0
86.01,70.0
86.02,69.0
86.03,77.0
86.04,73.0
86.05,83.0
86.06,70.0
86.07,68.0
86.08,79.0
86.09,68.0
86.1,89.0
86.11,58.0
86.12,90.0
86.13,66.0
86.14,84.0
86.15,63.0
86.16,91.0
86.17,61.0
86.18,66.0
86.19,64.0
86.2,69.0
86.21,64.0
86.22,76.0
86.23,69.0
86.24,74.0
86.25,75.0
86.26,78.0
86.27,61.0
86.28,89.0
86.29,62.0
86.3,73.0
86.31,61.0
86.32,76.0
86.33,76.0
86.34,71.0
86.35,55.0
86.36,76.0
86.37,75.0
86.38,86.0
86.39,66.0
86.4,77.0
86.41,59.0
86.42,59.0
86.43,76.0
86.44,69.0
86.45,63.0
86.46,78.0
86.47,63.0
86.48,80.0
86.49,75.0
86.5,69.0
86.51,72.0
86.52,72.0
86.53,74.0
86.54,66.0
86.55,61.0
86.56,79.0
86.57,83.0
86.58,83.0
86.59,78.0
86.6,56.0
86.61,78.0
86.62,79.0
86.63,64.0
86.64,68.0
86.65,78.0
86.66,70.0
86.67,77.0
86.68,69.0
86.69,74.0
86.7,60.0
86.71,68.0
86.72,69.0
86.73,81.0
86.74,88.0
86.75,71.0
86.76,66.0
86.77,88.0
86.78,85.0
86.79,71.0
86.8,71.0
86.81,88.0
86.82,86.0
86.83,77.0
86.84,60.0
86.85,56.0
86.86,72.0
86.87,73.0
86.88,74.0
86.89,68.0
86.9,73.0
86.91,65.0
86.92,50.0
86.93,66.0
86.94,66.0
86.95,65.0
86.96,62.0
86.97,76.0
86.98,63.0
86.99,69.0
87.0,69.0
87.01,71.0
87.02,76.0
87.03,56.0
87.04,61.0
87.05,74.0
87.06,66.0
87.07,61.0
87.08,79.0
87.09,96.0
87.1,75.0
87.11,76.0
87.12,78.0
87.13,83.0
87.14,77.0
87.15,72.0
87.16,81.0
87.17,66.0
87.18,83.0
87.19,70.0
87.2,73.0
87.21,80.0
87.22,69.0
87.23,73.0
87.24,88.0
87.25,77.0
87.26,71.0
87.27,63.0
87.28,75.0
87.29,81.0
87.3,67.0
87.31,75.0
87.32,72.0
87.33,63.0
87.34,59.0
87.35,76.0
87.36,87.0
87.37,83.0
87.38,82.0
87.39,81.0
87.4,60.0
87.41,66.0
87.42,70.0
87.43,76.0
87.44,65.0
87.45,64.0
87.46,62.0
87.47,79.0
87.48,83.0
87.49,71.0
87.5,88.0
87.51,80.0
87.52,66.0
87.53,68.0
87.54,87.0
87.55,84.0
87.56,75.0
87.57,80.0
87.58,68.0
87.59,76.0
87.6,71.0
87.61,74.0
87.62,92.0
87.63,78.0
87.64,82.0
87.65,73.0
87.66,84.0
87.67,82.0
87.68,72.0
87.69,71.0
87.7,79.0
87.71,78.0
87.72,75.0
87.73,68.0
87.74,71.0
87.75,69.0
87.76,72.0
87.77,69.0
87.78,56.0
87.79,68.0
87.8,77.0
87.81,70.0
87.82,75.0
87.83,75.0
87.84,86.0
87.85,88.0
87.86,72.0
87.87,65.0
87.88,65.0
87.89,57.0
87.9,87.0
87.91,60.0
87.92,75.0
87.93,71.0
87.94,69.0
87.95,79.0
87.96,82.0
87.97,79.0
87.98,66.0
87.99,51.0
88.0,77.0
88.01,76.0
88.02,76.0
88.03,68.0
88.04,65.0
88.05,91.0
88.06,70.0
88.07,59.0
88.08,70.0
88.09,87.0
88.1,72.0
88.11,68.0
88.12,66.0
88.13,68.0
88.14,78.0
88.15,69.0
88.16,71.0
88.17,61.0
88.18,68.0
88.19,84.0
88.2,70.0
88.21,73.0
88.22,89.0
88.23,65.0
88.24,77.0
88.25,79.0
88.26,77.0
88.27,72.0
88.28,64.0
88.29,57.0
88.3,58.0
88.31,76.0
88.32,70.0
88.33,75.0
88.34,68.0
88.35,71.0
88.36,66.0
88.37,80.0
88.38,77.0
88.39,70.0
88.4,83.0
88.41,74.0
88.42,68.0
88.43,74.0
88.44,82.0
88.45,79.0
88.46,71.0
88.47,71.0
88.48,64.0
88.49,68.0
88.5,84.0
88.51,68.0
88.52,66.0
88.53,56.0
88.54,70.0
88.55,76.0
88.56,73.0
88.57,70.0
88.58,66.0
88.59,71.0
88.6,78.0
88.61,57.0
88.62,70.0
88.63,85.0
88.64,54.0
88.65,74.0
88.66,77.0
88.67,73.0
88.68,68.0
88.69,71.0
88.7,78.0
88.71,60.0
88.72,70.0
88.73,64.0
88.74,82.0
88.75,79.0
88.76,67.0
88.77,67.0
88.78,71.0
88.79,69.0
88.8,77.0
88.81,66.0
88.82,70.0
88.83,71.0
88.84,81.0
88.85,83.0
88.86,57.0
88.87,69.0
88.88,65.0
88.89,63.0
88.9,61.0
88.91,68.0
88.92,88.0
88.93,78.0
88.94,78.0
88.95,82.0
88.96,60.0
88.97,59.0
88.98,92.0
88.99,71.0
89.0,76.0
89.01,73.0
89.02,61.0
89.03,82.0
89.04,91.0
89.05,70.0
89.06,80.0
89.07,73.0
89.08,82.0
89.09,72.0
89.1,65.0
89.11,77.0
89.12,65.0
89.13,82.0
89.14,74.0
89.15,80.0
89.16,74.0
89.17,73.0
89.18,89.0
89.19,78.0
89.2,81.0
89.21,85.0
89.22,64.0
89.23,70.0
89.24,81.0
89.25,73.0
89.26,67.0
89.27,90.0
89.28,94.0
89.29,59.0
89.3,84.0
89.31,72.0
89.32,75.0
89.33,71.0
89.34,85.0
89.35,79.0
89.36,83.0
89.37,70.0
89.38,78.0
89.39,72.0
89.4,72.0
89.41,72.0
89.42,76.0
89.43,81.0
89.44,77.0
89.45,71.0
89.46,64.0
89.47,86.0
89.48,81.0
89.49,74.0
89.5,78.0
89.51,85.0
89.52,57.0
89.53,77.0
89.54,77.0
89.55,64.0
89.56,78.0
89.57,80.0
89.58,61.0
89.59,77.0
89.6,72.0
89.61,71.0
89.62,80.0
89.63,89.0
89.64,71.0
89.65,65.0
89.66,66.0
89.67,72.0
89.68,59.0
89.69,74.0
89.7,70.0
89.71,79.0
89.72,79.0
89.73,60.0
89.74,72.0
89.75,74.0
89.76,76.0
89.77,61.0
89.78,72.0
89.79,94.0
89.8,79.0
89.81,89.0
89.82,68.0
89.83,70.0
89.84,73.0
89.85,90.0
89.86,80.0
89.87,62.0
89.88,83.0
89.89,77.0
89.9,79.0
89.91,84.0
89.92,79.0
89.93,92.0
89.94,63.0
89.95,70.0
89.96,77.0
89.97,74.0
89.98,87.0
89.99,79.0
90.0,77.0
