angle,intensity
5.0,59.0
5.01,59.0
5.02,44.0
5.03,67.0
5.04,51.0
5.05,64.0
5.06,62.0
5.07,71.0
5.08,74.0
5.09,75.0
5.1,71.0
5.11,57.0
5.12,80.0
5.13,69.0
5.14,72.0
5.15,63.0
5.16,71.0
5.17,58.0
5.18,68.0
5.19,49.0
5.2,67.0
5.21,66.0
5.22,65.0
5.23,75.0
5.24,65.0
5.25,56.0
5.26,50.0
5.27,58.0
5.28,80.0
5.29,64.0
5.3,60.0
5.31,65.0
5.32,70.0
5.33,65.0
5.34,57.0
5.35,71.0
5.36,73.0
5.37,60.0
5.38,73.0
5.39,49.0
5.4,80.0
5.41,68.0
5.42,56.0
5.43,74.0
5.44,76.0
5.45,49.0
5.46,59.0
5.47,72.0
5.48,67.0
5.49,56.0
5.5,77.0
5.51,58.0
5.52,77.0
5.53,61.0
5.54,65.0
5.55,59.0
5.56,65.0
5.57,59.0
5.58,64.0
5.59,63.0
5.6,65.0
5.61,72.0
5.62,64.0
5.63,61.0
5.64,73.0
5.65,58.0
5.66,75.0
5.67,87.0
5.68,55.0
5.69,71.0
5.7,66.0
5.71,69.0
5.72,64.0
5.73,75.0
5.74,71.0
5.75,77.0
5.76,63.0
5.77,59.0
5.78,80.0
5.79,65.0
5.8,75.0
5.81,68.0
5.82,74.0
5.83,64.0
5.84,63.0
5.85,67.0
5.86,61.0
5.87,64.0
5.88,77.0
5.89,53.0
5.9,68.0
5.91,72.0
5.92,74.0
5.93,67.0
5.94,63.0
5.95,65.0
5.96,82.0
5.97,61.0
5.98,55.0
5.99,75.0
6.0,70.0
6.01,66.0
6.02,86.0
6.03,66.0
6.04,57.0
6.05,72.0
6.06,71.0
6.07,55.0
6.08,68.0
6.09,64.0
6.1,86.0
6.11,68.0
6.12,79.0
6.13,54.0
6.14,85.0
6.15,80.0
6.16,67.0
6.17,66.0
6.18,69.0
6.19,67.0
6.2,60.0
6.21,74.0
6.22,57.0
6.23,81.0
6.24,74.0
6.25,82.0
6.26,67.0
6.27,68.0
6.28,64.0
6.29,67.0
6.3,69.0
6.31,78.0
6.32,63.0
6.33,70.0
6.34,68.0
6.35,65.0
6.36,54.0
6.37,65.0
6.38,77.0
6.39,73.0
6.4,69.0
6.41,68.0
6.42,66.0
6.43,68.0
6.44,75.0
6.45,80.0
6.46,50.0
6.47,64.0
6.48,56.0
6.49,75.0
6.5,68.0
6.51,84.0
6.52,79.0
6.53,69.0
6.54,72.0
6.55,70.0
6.56,74.0
6.57,82.0
6.58,62.0
6.59,64.0
6.6,68.0
6.61,67.0
6.62,76.0
6.63,60.0
6.64,65.0
6.65,68.0
6.66,76.0
6.67,70.0
6.68,91.0
6.69,72.0
6.7,68.0
6.71,85.0
6.72,77.0
6.73,77.0
6.74,70.0
6.75,77.0
6.76,50.0
6.77,75.0
6.78,84.0
6.79,65.0
6.8,64.0
6.81,55.0
6.82,76.0
6.83,71.0
6.84,61.0
6.85,74.0
6.86,77.0
6.87,71.0
6.88,78.0
6.89,86.0
6.9,69.0
6.91,77.0
6.92,68.0
6.93,69.0
6.94,94.0
6.95,70.0
6.96,82.0
6.97,73.0
6.98,60.0
6.99,71.0
7.0,71.0
7.01,68.0
7.02,74.0
7.03,67.0
7.04,58.0
7.05,59.0
7.06,62.0
7.07,73.0
7.08,82.0
7.09,61.0
7.1,70.0
7.11,75.0
7.12,81.0
7.13,63.0
7.14,79.0
7.15,78.0
7.16,60.0
7.17,57.0
7.18,66.0
7.19,66.0
7.2,58.0
7.21,96.0
7.22,70.0
7.23,73.0
7.24,82.0
7.25,55.0
7.26,65.0
7.27,74.0
7.28,70.0
7.29,73.0
7.3,68.0
7.31,70.0
7.32,60.0
7.33,72.0
7.34,69.0
7.35,68.0
7.36,75.0
7.37,82.0
7.38,69.0
7.39,69.0
7.4,61.0
7.41,77.0
7.42,73.0
7.43,80.0
7.44,77.0
7.45,60.0
7.46,71.0
7.47,61.0
7.48,62.0
7.49,60.0
7.5,82.0
7.51,78.0
7.52,69.0
7.53,76.0
7.54,77.0
7.55,67.0
7.56,73.0
7.57,70.0
7.58,83.0
7.59,70.0
7.6,67.0
7.61,68.0
7.62,71.0
7.63,77.0
7.64,40.0
7.65,64.0
7.66,60.0
7.67,78.0
7.68,89.0
7.69,67.0
7.7,75.0
7.71,58.0
7.72,70.0
7.73,81.0
7.74,72.0
7.75,51.0
7.76,70.0
7.77,62.0
7.78,76.0
7.79,62.0
7.8,66.0
7.81,68.0
7.82,73.0
7.83,61.0
7.84,70.0
7.85,73.0
7.86,64.0
7.87,58.0
7.88,56.0
7.89,70.0
7.9,72.0
7.91,63.0
7.92,75.0
7.93,73.0
7.94,82.0
7.95,82.0
7.96,67.0
7.97,84.0
7.98,72.0
7.99,71.0
8.0,67.0
8.01,59.0
8.02,65.0
8.03,66.0
8.04,66.0
8.05,57.0
8.06,71.0
8.07,76.0
8.08,59.0
8.09,67.0
8.1,70.0
8.11,63.0
8.12,57.0
8.13,71.0
8.14,75.0
8.15,69.0
8.16,55.0
8.17,74.0
8.18,61.0
8.19,65.0
8.2,71.0
8.21,67.0
8.22,74.0
8.23,81.0
8.24,62.0
8.25,45.0
8.26,72.0
8.27,87.0
8.28,66.0
8.29,74.0
8.3,62.0
8.31,73.0
8.32,59.0
8.33,58.0
8.34,60.0
8.35,56.0
8.36,63.0
8.37,84.0
8.38,68.0
8.39,56.0
8.4,65.0
8.41,76.0
8.42,59.0
8.43,71.0
8.44,70.0
8.45,69.0
8.46,52.0
8.47,72.0
8.48,72.0
8.49,74.0
8.5,72.0
8.51,67.0
8.52,65.0
8.53,61.0
8.54,86.0
8.55,83.0
8.56,68.0
8.57,65.0
8.58,61.0
8.59,51.0
8.6,76.0
8.61,62.0
8.62,68.0
8.63,65.0
8.64,60.0
8.65,80.0
8.66,60.0
8.67,63.0
8.68,53.0
8.69,69.0
8.7,65.0
8.71,68.0
8.72,72.0
8.73,53.0
8.74,60.0
8.75,74.0
8.76,80.0
8.77,78.0
8.78,71.0
8.79,80.0
8.8,66.0
8.81,51.0
8.82,85.0
8.83,60.0
8.84,63.0
8.85,76.0
8.86,72.0
8.87,76.0
8.88,85.0
8.89,75.0
8.9,67.0
8.91,88.0
8.92,68.0
8.93,73.0
8.94,80.0
8.95,73.0
8.96,68.0
8.97,61.0
8.98,64.0
8.99,76.0
9.0,61.0
9.01,65.0
9.02,69.0
9.03,79.0
9.04,75.0
9.05,64.0
9.06,81.0
9.07,77.0
9.08,91.0
9.09,80.0
9.1,81.0
9.11,60.0
9.12,65.0
9.13,63.0
9.14,70.0
9.15,67.0
9.16,77.0
9.17,77.0
9.18,72.0
9.19,78.0
9.2,77.0
9.21,64.0
9.22,56.0
9.23,79.0
9.24,69.0
9.25,74.0
9.26,61.0
9.27,81.0
9.28,63.0
9.29,74.0
9.3,49.0
9.31,53.0
9.32,68.0
9.33,68.0
9.34,68.0
9.35,76.0
9.36,56.0
9.37,55.0
9.38,70.0
9.39,61.0
9.4,76.0
9.41,70.0
9.42,79.0
9.43,65.0
9.44,71.0
9.45,76.0
9.46,78.0
9.47,74.0
9.48,75.0
9.49,70.0
9.5,66.0
9.51,84.0
9.52,50.0
9.53,63.0
9.54,80.0
9.55,66.0
9.56,69.0
9.57,64.0
9.58,68.0
9.59,71.0
9.6,57.0
9.61,60.0
9.62,64.0
9.63,57.0
9.64,64.0
9.65,65.0
9.66,64.0
9.67,62.0
9.68,70.0
9.69,74.0
9.7,91.0
9.71,74.0
9.72,79.0
9.73,84.0
9.74,75.0
9.75,84.0
9.76,77.0
9.77,57.0
9.78,62.0
9.79,67.0
9.8,63.0
9.81,77.0
9.82,64.0
9.83,59.0
9.84,60.0
9.85,69.0
9.86,66.0
9.87,75.0
9.88,79.0
9.89,51.0
9.9,65.0
9.91,79.0
9.92,72.0
9.93,74.0
9.94,77.0
9.95,74.0
9.96,67.0
9.97,64.0
9.98,60.0
9.99,71.0
10.0,75.0
10.01,70.0
10.02,70.0
10.03,76.0
10.04,71.0
10.05,64.0
10.06,83.0
10.07,61.0
10.08,79.0
10.09,68.0
10.1,84.0
10.11,71.0
10.12,75.0
10.13,73.0
10.14,70.0
10.15,67.0
10.16,73.0
10.17,55.0
10.18,83.0
10.19,62.0
10.2,92.0
10.21,82.0
10.22,79.0
10.23,92.0
10.24,86.0
10.25,87.0
10.26,91.0
10.27,95.0
10.28,107.0
10.29,93.0
10.3,101.0
10.31,110.0
10.32,121.0
10.33,136.0
10.34,148.0
10.35,177.0
10.36,181.0
10.37,238.0
10.38,263.0
10.39,306.0
10.4,321.0
10.41,400.0
10.42,363.0
10.43,383.0
10.44,305.0
10.45,253.0
10.46,218.0
10.47,145.0
10.48,143.0
10.49,131.0
10.5,103.0
10.51,79.0
10.52,72.0
10.53,91.0
10.54,92.0
10.55,80.0
10.56,77.0
10.57,88.0
10.58,85.0
10.59,74.0
10.6,67.0
10.61,88.0
10.62,83.0
10.63,68.0
10.64,77.0
10.65,72.0
10.66,67.0
10.67,66.0
10.68,68.0
10.69,70.0
10.7,64.0
10.71,79.0
10.72,70.0
10.73,68.0
10.74,59.0
10.75,63.0
10.76,55.0
10.77,65.0
10.78,86.0
10.79,70.0
10.8,58.0
10.81,71.0
10.82,64.0
10.83,63.0
10.84,68.0
10.85,64.0
10.86,67.0
10.87,74.0
10.88,55.0
10.89,61.0
10.9,80.0
10.91,59.0
10.92,61.0
10.93,74.0
10.94,73.0
10.95,73.0
10.96,68.0
10.97,67.0
10.98,63.0
10.99,67.0
11.0,61.0
11.01,52.0
11.02,62.0
11.03,59.0
11.04,77.0
11.05,85.0
11.06,80.0
11.07,71.0
11.08,63.0
11.09,59.0
11.1,61.0
11.11,71.0
11.12,71.0
11.13,64.0
11.14,68.0
11.15,63.0
11.16,71.0
11.17,61.0
11.18,75.0
11.19,62.0
11.2,65.0
11.21,62.0
11.22,81.0
11.23,61.0
11.24,71.0
11.25,64.0
11.26,52.0
11.27,71.0
11.28,55.0
11.29,65.0
11.3,59.0
11.31,62.0
11.32,64.0
11.33,72.0
11.34,65.0
11.35,70.0
11.36,74.0
11.37,83.0
11.38,77.0
11.39,71.0
11.4,50.0
11.41,68.0
11.42,64.0
11.43,71.0
11.44,58.0
11.45,60.0
11.46,66.0
11.47,65.0
11.48,66.0
11.49,57.0
11.5,64.0
11.51,55.0
11.52,52.0
11.53,69.0
11.54,58.0
11.55,77.0
11.56,59.0
11.57,65.0
11.58,55.0
11.59,70.0
11.6,51.0
11.61,62.0
11.62,74.0
11.63,70.0
11.64,66.0
11.65,58.0
11.66,56.0
11.67,69.0
11.68,72.0
11.69,66.0
11.7,65.0
11.71,69.0
11.72,65.0
11.73,83.0
11.74,78.0
11.75,62.0
11.76,65.0
11.77,61.0
11.78,67.0
11.79,75.0
11.8,57.0
11.81,64.0
11.82,71.0
11.83,67.0
11.84,74.0
11.85,66.0
11.86,68.0
11.87,66.0
11.88,68.0
11.89,71.0
11.9,59.0
11.91,69.0
11.92,67.0
11.93,83.0
11.94,67.0
11.95,64.0
11.96,63.0
11.97,75.0
11.98,86.0
11.99,65.0
12.0,73.0
12.01,54.0
12.02,76.0
12.03,71.0
12.04,62.0
12.05,56.0
12.06,73.0
12.07,68.0
12.08,60.0
12.09,76.0
12.1,78.0
12.11,80.0
12.12,65.0
12.13,67.0
12.14,69.0
12.15,88.0
12.16,56.0
12.17,49.0
12.18,66.0
12.19,60.0
12.2,61.0
12.21,58.0
12.22,79.0
12.23,66.0
12.24,85.0
12.25,74.0
12.26,69.0
12.27,57.0
12.28,57.0
12.29,64.0
12.3,67.0
12.31,56.0
12.32,56.0
12.33,66.0
12.34,67.0
12.35,76.0
12.36,60.0
12.37,69.0
12.38,65.0
12.39,68.0
12.4,50.0
12.41,62.0
12.42,70.0
12.43,62.0
12.44,50.0
12.45,83.0
12.46,62.0
12.47,83.0
12.48,70.0
12.49,80.0
12.5,53.0
12.51,57.0
12.52,61.0
12.53,67.0
12.54,66.0
12.55,71.0
12.56,72.0
12.57,59.0
12.58,64.0
12.59,74.0
12.6,58.0
12.61,55.0
12.62,61.0
12.63,49.0
12.64,61.0
12.65,51.0
12.66,58.0
12.67,57.0
12.68,64.0
12.69,67.0
12.7,71.0
12.71,71.0
12.72,77.0
12.73,67.0
12.74,50.0
12.75,52.0
12.76,72.0
12.77,67.0
12.78,79.0
12.79,58.0
12.8,70.0
12.81,60.0
12.82,60.0
12.83,55.0
12.84,63.0
12.85,61.0
12.86,79.0
12.87,65.0
12.88,51.0
12.89,61.0
12.9,55.0
12.91,69.0
12.92,78.0
12.93,65.0
12.94,55.0
12.95,52.0
12.96,63.0
12.97,63.0
12.98,64.0
12.99,76.0
13.0,78.0
13.01,84.0
13.02,49.0
13.03,59.0
13.04,57.0
13.05,57.0
13.06,55.0
13.07,85.0
13.08,62.0
13.09,67.0
13.1,70.0
13.11,53.0
13.12,67.0
13.13,67.0
13.14,55.0
13.15,49.0
13.16,45.0
13.17,74.0
13.18,65.0
13.19,66.0
13.2,60.0
13.21,72.0
13.22,53.0
13.23,58.0
13.24,64.0
13.25,79.0
13.26,45.0
13.27,56.0
13.28,68.0
13.29,60.0
13.3,69.0
13.31,60.0
13.32,61.0
13.33,79.0
13.34,55.0
13.35,70.0
13.36,66.0
13.37,65.0
13.38,90.0
13.39,72.0
13.4,65.0
13.41,66.0
13.42,71.0
13.43,60.0
13.44,81.0
13.45,61.0
13.46,70.0
13.47,59.0
13.48,68.0
13.49,66.0
13.5,62.0
13.51,43.0
13.52,55.0
13.53,73.0
13.54,87.0
13.55,91.0
13.56,58.0
13.57,63.0
13.58,73.0
13.59,67.0
13.6,51.0
13.61,76.0
13.62,76.0
13.63,75.0
13.64,75.0
13.65,47.0
13.66,62.0
13.67,57.0
13.68,59.0
13.69,67.0
13.7,62.0
13.71,56.0
13.72,68.0
13.73,66.0
13.74,83.0
13.75,61.0
13.76,50.0
13.77,54.0
13.78,67.0
13.79,56.0
13.8,76.0
13.81,70.0
13.82,77.0
13.83,73.0
13.84,72.0
13.85,60.0
13.86,60.0
13.87,68.0
13.88,65.0
13.89,79.0
13.9,63.0
13.91,79.0
13.92,57.0
13.93,49.0
13.94,64.0
13.95,65.0
13.96,65.0
13.97,65.0
13.98,52.0
13.99,51.0
14.0,61.0
14.01,63.0
14.02,73.0
14.03,60.0
14.04,56.0
14.05,44.0
14.06,81.0
14.07,65.0
14.08,59.0
14.09,64.0
14.1,68.0
14.11,51.0
14.12,65.0
14.13,66.0
14.14,71.0
14.15,62.0
14.16,74.0
14.17,57.0
14.18,58.0
14.19,53.0
14.2,60.0
14.21,62.0
14.22,65.0
14.23,64.0
14.24,52.0
14.25,74.0
14.26,61.0
14.27,62.0
14.28,66.0
14.29,60.0
14.3,64.0
14.31,69.0
14.32,63.0
14.33,61.0
14.34,65.0
14.35,67.0
14.36,61.0
14.37,63.0
14.38,61.0
14.39,58.0
14.4,52.0
14.41,69.0
14.42,54.0
14.43,67.0
14.44,56.0
14.45,66.0
14.46,71.0
14.47,66.0
14.48,72.0
14.49,71.0
14.5,77.0
14.51,62.0
14.52,60.0
14.53,64.0
14.54,67.0
14.55,62.0
14.56,53.0
14.57,62.0
14.58,63.0
14.59,59.0
14.6,56.0
14.61,59.0
14.62,61.0
14.63,67.0
14.64,54.0
14.65,62.0
14.66,69.0
14.67,54.0
14.68,64.0
14.69,63.0
14.7,51.0
14.71,61.0
14.72,51.0
14.73,60.0
14.74,63.0
14.75,82.0
14.76,61.0
14.77,75.0
14.78,58.0
14.79,53.0
14.8,71.0
14.81,54.0
14.82,73.0
14.83,62.0
14.84,84.0
14.85,71.0
14.86,52.0
14.87,67.0
14.88,60.0
14.89,49.0
14.9,57.0
14.91,65.0
14.92,63.0
14.93,62.0
14.94,59.0
14.95,53.0
14.96,70.0
14.97,77.0
14.98,54.0
14.99,56.0
15.0,70.0
15.01,59.0
15.02,58.0
15.03,73.0
15.04,59.0
15.05,52.0
15.06,54.0
15.07,68.0
15.08,65.0
15.09,69.0
15.1,52.0
15.11,66.0
15.12,68.0
15.13,74.0
15.14,66.0
15.15,64.0
15.16,75.0
15.17,68.0
15.18,63.0
15.19,52.0
15.2,55.0
15.21,59.0
15.22,60.0
15.23,65.0
15.24,84.0
15.25,61.0
15.26,61.0
15.27,62.0
15.28,55.0
15.29,57.0
15.3,65.0
15.31,57.0
15.32,51.0
15.33,55.0
15.34,54.0
15.35,62.0
15.36,53.0
15.37,73.0
15.38,46.0
15.39,61.0
15.4,65.0
15.41,65.0
15.42,68.0
15.43,76.0
15.44,61.0
15.45,71.0
15.46,59.0
15.47,55.0
15.48,67.0
15.49,65.0
15.5,64.0
15.51,71.0
15.52,52.0
15.53,52.0
15.54,62.0
15.55,57.0
15.56,60.0
15.57,66.0
15.58,59.0
15.59,76.0
15.6,65.0
15.61,65.0
15.62,64.0
15.63,61.0
15.64,61.0
15.65,68.0
15.66,67.0
15.67,51.0
15.68,47.0
15.69,49.0
15.7,52.0
15.71,65.0
15.72,59.0
15.73,64.0
15.74,58.0
15.75,60.0
15.76,62.0
15.77,48.0
15.78,61.0
15.79,62.0
15.8,56.0
15.81,58.0
15.82,71.0
15.83,62.0
15.84,56.0
15.85,68.0
15.86,56.0
15.87,69.0
15.88,58.0
15.89,72.0
15.9,63.0
15.91,67.0
15.92,64.0
15.93,71.0
15.94,75.0
15.95,69.0
15.96,54.0
15.97,65.0
15.98,48.0
15.99,61.0
16.0,65.0
16.01,68.0
16.02,58.0
16.03,62.0
16.04,55.0
16.05,76.0
16.06,63.0
16.07,72.0
16.08,48.0
16.09,63.0
16.1,60.0
16.11,53.0
16.12,61.0
16.13,71.0
16.14,68.0
16.15,64.0
16.16,59.0
16.17,57.0
16.18,61.0
16.19,58.0
16.2,59.0
16.21,70.0
16.22,51.0
16.23,59.0
16.24,60.0
16.25,55.0
16.26,52.0
16.27,87.0
16.28,74.0
16.29,54.0
16.3,71.0
16.31,41.0
16.32,60.0
16.33,76.0
16.34,59.0
16.35,61.0
16.36,62.0
16.37,67.0
16.38,52.0
16.39,76.0
16.4,64.0
16.41,71.0
16.42,76.0
16.43,65.0
16.44,74.0
16.45,56.0
16.46,71.0
16.47,76.0
16.48,64.0
16.49,56.0
16.5,67.0
16.51,47.0
16.52,56.0
16.53,60.0
16.54,68.0
16.55,58.0
16.56,73.0
16.57,73.0
16.58,60.0
16.59,65.0
16.6,69.0
16.61,53.0
16.62,59.0
16.63,55.0
16.64,58.0
16.65,58.0
16.66,67.0
16.67,56.0
16.68,62.0
16.69,59.0
16.7,65.0
16.71,76.0
16.72,58.0
16.73,71.0
16.74,69.0
16.75,63.0
16.76,63.0
16.77,62.0
16.78,56.0
16.79,50.0
16.8,60.0
16.81,81.0
16.82,61.0
16.83,65.0
16.84,51.0
16.85,65.0
16.86,60.0
16.87,61.0
16.88,58.0
16.89,68.0
16.9,54.0
16.91,50.0
16.92,60.0
16.93,72.0
16.94,65.0
16.95,70.0
16.96,71.0
16.97,67.0
16.98,67.0
16.99,63.0
17.0,79.0
17.01,68.0
17.02,63.0
17.03,64.0
17.04,80.0
17.05,73.0
17.06,49.0
17.07,70.0
17.08,47.0
17.09,61.0
17.1,55.0
17.11,62.0
17.12,48.0
17.13,67.0
17.14,62.0
17.15,68.0
17.16,60.0
17.17,62.0
17.18,50.0
17.19,77.0
17.2,52.0
17.21,70.0
17.22,65.0
17.23,61.0
17.24,61.0
17.25,69.0
17.26,55.0
17.27,68.0
17.28,62.0
17.29,66.0
17.3,69.0
17.31,84.0
17.32,57.0
17.33,61.0
17.34,54.0
17.35,64.0
17.36,64.0
17.37,56.0
17.38,66.0
17.39,59.0
17.4,68.0
17.41,65.0
17.42,53.0
17.43,59.0
17.44,74.0
17.45,77.0
17.46,80.0
17.47,68.0
17.48,79.0
17.49,61.0
17.5,58.0
17.51,65.0
17.52,45.0
17.53,56.0
17.54,57.0
17.55,57.0
17.56,61.0
17.57,60.0
17.58,65.0
17.59,55.0
17.6,67.0
17.61,75.0
17.62,56.0
17.63,71.0
17.64,64.0
17.65,64.0
17.66,77.0
17.67,57.0
17.68,64.0
17.69,60.0
17.7,47.0
17.71,65.0
17.72,54.0
17.73,51.0
17.74,66.0
17.75,74.0
17.76,59.0
17.77,68.0
17.78,65.0
17.79,67.0
17.8,87.0
17.81,69.0
17.82,63.0
17.83,68.0
17.84,60.0
17.85,67.0
17.86,73.0
17.87,61.0
17.88,71.0
17.89,58.0
17.9,63.0
17.91,56.0
17.92,64.0
17.93,59.0
17.94,78.0
17.95,79.0
17.96,72.0
17.97,68.0
17.98,73.0
17.99,75.0
18.0,84.0
18.01,72.0
18.02,58.0
18.03,67.0
18.04,77.0
18.05,71.0
18.06,69.0
18.07,69.0
18.08,82.0
18.09,51.0
18.1,87.0
18.11,63.0
18.12,66.0
18.13,61.0
18.14,65.0
18.15,54.0
18.16,58.0
18.17,79.0
18.18,59.0
18.19,73.0
18.2,61.0
18.21,58.0
18.22,63.0
18.23,59.0
18.24,59.0
18.25,64.0
18.26,66.0
18.27,49.0
18.28,63.0
18.29,70.0
18.3,73.0
18.31,60.0
18.32,55.0
18.33,58.0
18.34,64.0
18.35,68.0
18.36,65.0
18.37,60.0
18.38,75.0
18.39,65.0
18.4,79.0
18.41,69.0
18.42,100.0
18.43,88.0
18.44,93.0
18.45,103.0
18.46,116.0
18.47,79.0
18.48,96.0
18.49,81.0
18.5,76.0
18.51,73.0
18.52,59.0
18.53,76.0
18.54,75.0
18.55,68.0
18.56,67.0
18.57,74.0
18.58,64.0
18.59,69.0
18.6,52.0
18.61,57.0
18.62,48.0
18.63,64.0
18.64,59.0
18.65,61.0
18.66,54.0
18.67,58.0
18.68,65.0
18.69,59.0
18.7,54.0
18.71,57.0
18.72,68.0
18.73,61.0
18.74,63.0
18.75,64.0
18.76,53.0
18.77,66.0
18.78,62.0
18.79,50.0
18.8,66.0
18.81,75.0
18.82,61.0
18.83,56.0
18.84,94.0
18.85,72.0
18.86,79.0
18.87,58.0
18.88,73.0
18.89,62.0
18.9,81.0
18.91,53.0
18.92,56.0
18.93,72.0
18.94,73.0
18.95,54.0
18.96,59.0
18.97,54.0
18.98,49.0
18.99,64.0
19.0,62.0
19.01,53.0
19.02,63.0
19.03,59.0
19.04,81.0
19.05,56.0
19.06,76.0
19.07,60.0
19.08,47.0
19.09,67.0
19.1,57.0
19.11,69.0
19.12,61.0
19.13,58.0
19.14,50.0
19.15,60.0
19.16,66.0
19.17,61.0
19.18,55.0
19.19,62.0
19.2,59.0
19.21,56.0
19.22,57.0
19.23,60.0
19.24,60.0
19.25,67.0
19.26,68.0
19.27,68.0
19.28,60.0
19.29,63.0
19.3,65.0
19.31,62.0
19.32,57.0
19.33,60.0
19.34,77.0
19.35,65.0
19.36,66.0
19.37,76.0
19.38,63.0
19.39,49.0
19.4,59.0
19.41,84.0
19.42,56.0
19.43,57.0
19.44,73.0
19.45,73.0
19.46,63.0
19.47,73.0
19.48,97.0
19.49,74.0
19.5,79.0
19.51,101.0
19.52,79.0
19.53,74.0
19.54,81.0
19.55,61.0
19.56,80.0
19.57,67.0
19.58,86.0
19.59,69.0
19.6,76.0
19.61,54.0
19.62,72.0
19.63,70.0
19.64,65.0
19.65,75.0
19.66,61.0
19.67,60.0
19.68,68.0
19.69,55.0
19.7,60.0
19.71,65.0
19.72,49.0
19.73,64.0
19.74,82.0
19.75,54.0
19.76,60.0
19.77,80.0
19.78,60.0
19.79,76.0
19.8,64.0
19.81,50.0
19.82,71.0
19.83,56.0
19.84,63.0
19.85,55.0
19.86,63.0
19.87,53.0
19.88,63.0
19.89,61.0
19.9,64.0
19.91,66.0
19.92,71.0
19.93,60.0
19.94,51.0
19.95,51.0
19.96,68.0
19.97,68.0
19.98,60.0
19.99,44.0
20.0,65.0
20.01,59.0
20.02,66.0
20.03,55.0
20.04,58.0
20.05,76.0
20.06,63.0
20.07,62.0
20.08,70.0
20.09,67.0
20.1,80.0
20.11,64.0
20.12,71.0
20.13,50.0
20.14,72.0
20.15,58.0
20.16,62.0
20.17,60.0
20.18,74.0
20.19,56.0
20.2,69.0
20.21,72.0
20.22,57.0
20.23,63.0
20.24,68.0
20.25,69.0
20.26,53.0
20.27,70.0
20.28,73.0
20.29,55.0
20.3,64.0
20.31,75.0
20.32,70.0
20.33,60.0
20.34,62.0
20.35,71.0
20.36,71.0
20.37,55.0
20.38,54.0
20.39,49.0
20.4,66.0
20.41,55.0
20.42,65.0
20.43,63.0
20.44,64.0
20.45,63.0
20.46,63.0
20.47,64.0
20.48,70.0
20.49,61.0
20.5,58.0
20.51,56.0
20.52,61.0
20.53,60.0
20.54,55.0
20.55,70.0
20.56,60.0
20.57,70.0
20.58,71.0
20.59,75.0
20.6,73.0
20.61,57.0
20.62,55.0
20.63,65.0
20.64,64.0
20.65,58.0
20.66,53.0
20.67,60.0
20.68,54.0
20.69,72.0
20.7,57.0
20.71,66.0
20.72,67.0
20.73,54.0
20.74,62.0
20.75,51.0
20.76,59.0
20.77,64.0
20.78,71.0
20.79,58.0
20.8,62.0
20.81,72.0
20.82,70.0
20.83,74.0
20.84,70.0
20.85,59.0
20.86,62.0
20.87,67.0
20.88,73.0
20.89,66.0
20.9,60.0
20.91,63.0
20.92,64.0
20.93,69.0
20.94,62.0
20.95,73.0
20.96,50.0
20.97,57.0
20.98,63.0
20.99,58.0
21.0,56.0
21.01,68.0
21.02,62.0
21.03,67.0
21.04,60.0
21.05,53.0
21.06,63.0
21.07,57.0
21.08,65.0
21.09,60.0
21.1,50.0
21.11,63.0
21.12,60.0
21.13,64.0
21.14,64.0
21.15,61.0
21.16,67.0
21.17,60.0
21.18,75.0
21.19,59.0
21.2,64.0
21.21,52.0
21.22,55.0
21.23,63.0
21.24,58.0
21.25,67.0
21.26,63.0
21.27,83.0
21.28,71.0
21.29,63.0
21.3,67.0
21.31,60.0
21.32,53.0
21.33,69.0
21.34,59.0
21.35,66.0
21.36,71.0
21.37,64.0
21.38,63.0
21.39,62.0
21.4,57.0
21.41,68.0
21.42,61.0
21.43,70.0
21.44,53.0
21.45,60.0
21.46,72.0
21.47,70.0
21.48,56.0
21.49,70.0
21.5,74.0
21.51,47.0
21.52,61.0
21.53,78.0
21.54,66.0
21.55,66.0
21.56,67.0
21.57,77.0
21.58,62.0
21.59,54.0
21.6,56.0
21.61,82.0
21.62,55.0
21.63,63.0
21.64,61.0
21.65,56.0
21.66,59.0
21.67,65.0
21.68,62.0
21.69,69.0
21.7,71.0
21.71,52.0
21.72,63.0
21.73,65.0
21.74,72.0
21.75,57.0
21.76,55.0
21.77,73.0
21.78,71.0
21.79,64.0
21.8,62.0
21.81,76.0
21.82,59.0
21.83,58.0
21.84,58.0
21.85,67.0
21.86,50.0
21.87,71.0
21.88,77.0
21.89,63.0
21.9,75.0
21.91,50.0
21.92,76.0
21.93,73.0
21.94,61.0
21.95,57.0
21.96,59.0
21.97,59.0
21.98,76.0
21.99,56.0
22.0,50.0
22.01,53.0
22.02,57.0
22.03,68.0
22.04,56.0
22.05,71.0
22.06,62.0
22.07,71.0
22.08,63.0
22.09,57.0
22.1,58.0
22.11,71.0
22.12,68.0
22.13,57.0
22.14,70.0
22.15,78.0
22.16,65.0
22.17,74.0
22.18,63.0
22.19,67.0
22.2,65.0
22.21,67.0
22.22,62.0
22.23,91.0
22.24,59.0
22.25,63.0
22.26,80.0
22.27,65.0
22.28,65.0
22.29,60.0
22.3,48.0
22.31,57.0
22.32,65.0
22.33,70.0
22.34,75.0
22.35,59.0
22.36,71.0
22.37,57.0
22.38,62.0
22.39,77.0
22.4,53.0
22.41,61.0
22.42,75.0
22.43,64.0
22.44,57.0
22.45,51.0
22.46,64.0
22.47,57.0
22.48,81.0
22.49,79.0
22.5,53.0
22.51,59.0
22.52,57.0
22.53,67.0
22.54,67.0
22.55,63.0
22.56,80.0
22.57,71.0
22.58,74.0
22.59,85.0
22.6,66.0
22.61,72.0
22.62,83.0
22.63,69.0
22.64,69.0
22.65,69.0
22.66,52.0
22.67,53.0
22.68,71.0
22.69,93.0
22.7,72.0
22.71,77.0
22.72,65.0
22.73,54.0
22.74,51.0
22.75,66.0
22.76,62.0
22.77,69.0
22.78,61.0
22.79,63.0
22.8,66.0
22.81,71.0
22.82,57.0
22.83,55.0
22.84,73.0
22.85,69.0
22.86,65.0
22.87,66.0
22.88,61.0
22.89,54.0
22.9,67.0
22.91,73.0
22.92,56.0
22.93,67.0
22.94,62.0
22.95,64.0
22.96,67.0
22.97,66.0
22.98,69.0
22.99,47.0
23.0,64.0
23.01,62.0
23.02,70.0
23.03,65.0
23.04,73.0
23.05,59.0
23.06,58.0
23.07,58.0
23.08,58.0
23.09,75.0
23.1,76.0
23.11,65.0
23.12,70.0
23.13,63.0
23.14,68.0
23.15,61.0
23.16,69.0
23.17,60.0
23.18,62.0
23.19,51.0
23.2,65.0
23.21,70.0
23.22,63.0
23.23,62.0
23.24,73.0
23.25,72.0
23.26,64.0
23.27,72.0
23.28,72.0
23.29,68.0
23.3,56.0
23.31,58.0
23.32,55.0
23.33,65.0
23.34,66.0
23.35,79.0
23.36,55.0
23.37,65.0
23.38,50.0
23.39,60.0
23.4,63.0
23.41,72.0
23.42,65.0
23.43,54.0
23.44,72.0
23.45,73.0
23.46,54.0
23.47,59.0
23.48,58.0
23.49,61.0
23.5,73.0
23.51,77.0
23.52,70.0
23.53,59.0
23.54,67.0
23.55,79.0
23.56,64.0
23.57,64.0
23.58,72.0
23.59,62.0
23.6,54.0
23.61,51.0
23.62,65.0
23.63,69.0
23.64,67.0
23.65,68.0
23.66,70.0
23.67,61.0
23.68,52.0
23.69,65.0
23.7,52.0
23.71,68.0
23.72,58.0
23.73,62.0
23.74,55.0
23.75,62.0
23.76,66.0
23.77,61.0
23.78,58.0
23.79,70.0
23.8,73.0
23.81,52.0
23.82,61.0
23.83,71.0
23.84,61.0
23.85,70.0
23.86,49.0
23.87,77.0
23.88,63.0
23.89,55.0
23.9,59.0
23.91,69.0
23.92,69.0
23.93,58.0
23.94,68.0
23.95,64.0
23.96,69.0
23.97,55.0
23.98,75.0
23.99,67.0
24.0,69.0
24.01,73.0
24.02,74.0
24.03,67.0
24.04,53.0
24.05,61.0
24.06,65.0
24.07,64.0
24.08,71.0
24.09,53.0
24.1,60.0
24.11,65.0
24.12,70.0
24.13,52.0
24.14,55.0
24.15,70.0
24.16,72.0
24.17,59.0
24.18,68.0
24.19,48.0
24.2,71.0
24.21,62.0
24.22,53.0
24.23,78.0
24.24,57.0
24.25,67.0
24.26,66.0
24.27,60.0
24.28,47.0
24.29,65.0
24.3,52.0
24.31,68.0
24.32,70.0
24.33,61.0
24.34,59.0
24.35,68.0
24.36,79.0
24.37,63.0
24.38,65.0
24.39,67.0
24.4,68.0
24.41,57.0
24.42,63.0
24.43,73.0
24.44,54.0
24.45,61.0
24.46,71.0
24.47,78.0
24.48,61.0
24.49,74.0
24.5,68.0
24.51,70.0
24.52,66.0
24.53,59.0
24.54,65.0
24.55,72.0
24.56,69.0
24.57,57.0
24.58,69.0
24.59,68.0
24.6,65.0
24.61,58.0
24.62,66.0
24.63,71.0
24.64,66.0
24.65,78.0
24.66,60.0
24.67,68.0
24.68,63.0
24.69,62.0
24.7,65.0
24.71,68.0
24.72,75.0
24.73,67.0
24.74,68.0
24.75,61.0
24.76,75.0
24.77,69.0
24.78,62.0
24.79,65.0
24.8,53.0
24.81,67.0
24.82,76.0
24.83,64.0
24.84,71.0
24.85,69.0
24.86,72.0
24.87,65.0
24.88,62.0
24.89,63.0
24.9,69.0
24.91,49.0
24.92,64.0
24.93,69.0
24.94,71.0
24.95,58.0
24.96,75.0
24.97,66.0
24.98,71.0
24.99,62.0
25.0,76.0
25.01,77.0
25.02,63.0
25.03,65.0
25.04,56.0
25.05,71.0
25.06,62.0
25.07,69.0
25.08,57.0
25.09,69.0
25.1,65.0
25.11,55.0
25.12,60.0
25.13,73.0
25.14,59.0
25.15,60.0
25.16,53.0
25.17,59.0
25.18,60.0
25.19,60.0
25.2,65.0
25.21,59.0
25.22,65.0
25.23,64.0
25.24,70.0
25.25,56.0
25.26,63.0
25.27,66.0
25.28,65.0
25.29,62.0
25.3,74.0
25.31,77.0
25.32,70.0
25.33,77.0
25.34,69.0
25.35,70.0
25.36,70.0
25.37,54.0
25.38,71.0
25.39,67.0
25.4,67.0
25.41,52.0
25.42,74.0
25.43,63.0
25.44,63.0
25.45,64.0
25.46,53.0
25.47,94.0
25.48,80.0
25.49,65.0
25.5,69.0
25.51,64.0
25.52,68.0
25.53,70.0
25.54,63.0
25.55,83.0
25.56,67.0
25.57,66.0
25.58,59.0
25.59,62.0
25.6,62.0
25.61,74.0
25.62,75.0
25.63,73.0
25.64,80.0
25.65,64.0
25.66,77.0
25.67,67.0
25.68,82.0
25.69,55.0
25.7,71.0
25.71,72.0
25.72,61.0
25.73,80.0
25.74,60.0
25.75,54.0
25.76,78.0
25.77,71.0
25.78,65.0
25.79,73.0
25.8,76.0
25.81,86.0
25.82,70.0
25.83,64.0
25.84,71.0
25.85,76.0
25.86,60.0
25.87,73.0
25.88,65.0
25.89,75.0
25.9,68.0
25.91,66.0
25.92,73.0
25.93,72.0
25.94,57.0
25.95,81.0
25.96,75.0
25.97,59.0
25.98,82.0
25.99,74.0
26.0,74.0
26.01,66.0
26.02,73.0
26.03,73.0
26.04,92.0
26.05,88.0
26.06,86.0
26.07,89.0
26.08,87.0
26.09,101.0
26.1,88.0
26.11,110.0
26.12,102.0
26.13,131.0
26.14,120.0
26.15,134.0
26.16,120.0
26.17,107.0
26.18,90.0
26.19,97.0
26.2,114.0
26.21,94.0
26.22,86.0
26.23,92.0
26.24,80.0
26.25,88.0
26.26,71.0
26.27,61.0
26.28,72.0
26.29,66.0
26.3,78.0
26.31,80.0
26.32,63.0
26.33,66.0
26.34,75.0
26.35,63.0
26.36,72.0
26.37,81.0
26.38,59.0
26.39,69.0
26.4,65.0
26.41,83.0
26.42,65.0
26.43,64.0
26.44,59.0
26.45,71.0
26.46,73.0
26.47,65.0
26.48,61.0
26.49,60.0
26.5,65.0
26.51,62.0
26.52,61.0
26.53,77.0
26.54,74.0
26.55,74.0
26.56,70.0
26.57,62.0
26.58,69.0
26.59,67.0
26.6,55.0
26.61,67.0
26.62,70.0
26.63,57.0
26.64,54.0
26.65,71.0
26.66,68.0
26.67,81.0
26.68,70.0
26.69,66.0
26.7,60.0
26.71,67.0
26.72,75.0
26.73,73.0
26.74,55.0
26.75,47.0
26.76,58.0
26.77,65.0
26.78,69.0
26.79,61.0
26.8,71.0
26.81,78.0
26.82,64.0
26.83,59.0
26.84,65.0
26.85,83.0
26.86,55.0
26.87,61.0
26.88,77.0
26.89,92.0
26.9,64.0
26.91,86.0
26.92,95.0
26.93,80.0
26.94,112.0
26.95,113.0
26.96,120.0
26.97,120.0
26.98,100.0
26.99,73.0
27.0,109.0
27.01,93.0
27.02,90.0
27.03,101.0
27.04,90.0
27.05,80.0
27.06,80.0
27.07,71.0
27.08,77.0
27.09,83.0
27.1,91.0
27.11,65.0
27.12,76.0
27.13,74.0
27.14,65.0
27.15,66.0
27.16,82.0
27.17,70.0
27.18,57.0
27.19,84.0
27.2,66.0
27.21,66.0
27.22,74.0
27.23,68.0
27.24,62.0
27.25,68.0
27.26,69.0
27.27,89.0
27.28,94.0
27.29,71.0
27.3,59.0
27.31,66.0
27.32,68.0
27.33,75.0
27.34,65.0
27.35,75.0
27.36,50.0
27.37,83.0
27.38,60.0
27.39,70.0
27.4,65.0
27.41,64.0
27.42,56.0
27.43,58.0
27.44,70.0
27.45,56.0
27.46,76.0
27.47,70.0
27.48,61.0
27.49,64.0
27.5,70.0
27.51,72.0
27.52,59.0
27.53,80.0
27.54,60.0
27.55,63.0
27.56,67.0
27.57,72.0
27.58,71.0
27.59,71.0
27.6,69.0
27.61,64.0
27.62,68.0
27.63,69.0
27.64,63.0
27.65,70.0
27.66,69.0
27.67,65.0
27.68,68.0
27.69,59.0
27.7,71.0
27.71,79.0
27.72,68.0
27.73,79.0
27.74,54.0
27.75,71.0
27.76,73.0
27.77,76.0
27.78,72.0
27.79,64.0
27.8,76.0
27.81,84.0
27.82,62.0
27.83,82.0
27.84,58.0
27.85,54.0
27.86,62.0
27.87,71.0
27.88,65.0
27.89,80.0
27.9,78.0
27.91,72.0
27.92,71.0
27.93,69.0
27.94,49.0
27.95,71.0
27.96,63.0
27.97,61.0
27.98,61.0
27.99,53.0
28.0,74.0
28.01,75.0
28.02,58.0
28.03,73.0
28.04,76.0
28.05,64.0
28.06,73.0
28.07,67.0
28.08,69.0
28.09,59.0
28.1,89.0
28.11,76.0
28.12,81.0
28.13,84.0
28.14,84.0
28.15,90.0
28.16,112.0
28.17,81.0
28.18,85.0
28.19,97.0
28.2,119.0
28.21,151.0
28.22,190.0
28.23,209.0
28.24,245.0
28.25,220.0
28.26,210.0
28.27,184.0
28.28,143.0
28.29,187.0
28.3,146.0
28.31,153.0
28.32,180.0
28.33,129.0
28.34,138.0
28.35,105.0
28.36,113.0
28.37,99.0
28.38,75.0
28.39,82.0
28.4,108.0
28.41,71.0
28.42,84.0
28.43,80.0
28.44,64.0
28.45,77.0
28.46,69.0
28.47,66.0
28.48,87.0
28.49,53.0
28.5,94.0
28.51,78.0
28.52,79.0
28.53,79.0
28.54,81.0
28.55,69.0
28.56,65.0
28.57,72.0
28.58,62.0
28.59,88.0
28.6,56.0
28.61,84.0
28.62,80.0
28.63,58.0
28.64,74.0
28.65,70.0
28.66,67.0
28.67,66.0
28.68,74.0
28.69,78.0
28.7,85.0
28.71,76.0
28.72,79.0
28.73,60.0
28.74,62.0
28.75,76.0
28.76,66.0
28.77,75.0
28.78,60.0
28.79,71.0
28.8,65.0
28.81,72.0
28.82,71.0
28.83,59.0
28.84,62.0
28.85,76.0
28.86,69.0
28.87,70.0
28.88,67.0
28.89,58.0
28.9,82.0
28.91,58.0
28.92,69.0
28.93,69.0
28.94,78.0
28.95,63.0
28.96,68.0
28.97,68.0
28.98,59.0
28.99,62.0
29.0,59.0
29.01,62.0
29.02,63.0
29.03,74.0
29.04,60.0
29.05,58.0
29.06,52.0
29.07,69.0
29.08,68.0
29.09,68.0
29.1,81.0
29.11,71.0
29.12,61.0
29.13,76.0
29.14,80.0
29.15,65.0
29.16,84.0
29.17,67.0
29.18,69.0
29.19,85.0
29.2,85.0
29.21,68.0
29.22,60.0
29.23,52.0
29.24,63.0
29.25,76.0
29.26,65.0
29.27,69.0
29.28,62.0
29.29,76.0
29.3,53.0
29.31,71.0
29.32,77.0
29.33,70.0
29.34,81.0
29.35,63.0
29.36,75.0
29.37,57.0
29.38,68.0
29.39,84.0
29.4,92.0
29.41,61.0
29.42,64.0
29.43,62.0
29.44,74.0
29.45,79.0
29.46,71.0
29.47,70.0
29.48,70.0
29.49,72.0
29.5,68.0
29.51,84.0
29.52,83.0
29.53,56.0
29.54,77.0
29.55,63.0
29.56,71.0
29.57,76.0
29.58,64.0
29.59,65.0
29.6,74.0
29.61,83.0
29.62,63.0
29.63,68.0
29.64,71.0
29.65,64.0
29.66,69.0
29.67,68.0
29.68,75.0
29.69,79.0
29.7,72.0
29.71,63.0
29.72,82.0
29.73,60.0
29.74,56.0
29.75,64.0
29.76,72.0
29.77,73.0
29.78,67.0
29.79,77.0
29.8,70.0
29.81,64.0
29.82,64.0
29.83,72.0
29.84,66.0
29.85,50.0
29.86,72.0
29.87,63.0
29.88,68.0
29.89,74.0
29.9,52.0
29.91,75.0
29.92,71.0
29.93,53.0
29.94,76.0
29.95,75.0
29.96,49.0
29.97,77.0
29.98,71.0
29.99,65.0
30.0,67.0
30.01,68.0
30.02,59.0
30.03,65.0
30.04,67.0
30.05,69.0
30.06,56.0
30.07,70.0
30.08,99.0
30.09,86.0
30.1,86.0
30.11,85.0
30.12,77.0
30.13,87.0
30.14,99.0
30.15,86.0
30.16,84.0
30.17,79.0
30.18,85.0
30.19,87.0
30.2,76.0
30.21,67.0
30.22,77.0
30.23,86.0
30.24,75.0
30.25,77.0
30.26,69.0
30.27,80.0
30.28,81.0
30.29,72.0
30.3,81.0
30.31,83.0
30.32,57.0
30.33,75.0
30.34,63.0
30.35,72.0
30.36,61.0
30.37,76.0
30.38,80.0
30.39,67.0
30.4,69.0
30.41,77.0
30.42,71.0
30.43,74.0
30.44,71.0
30.45,84.0
30.46,63.0
30.47,77.0
30.48,67.0
30.49,66.0
30.5,69.0
30.51,64.0
30.52,73.0
30.53,84.0
30.54,93.0
30.55,68.0
30.56,84.0
30.57,70.0
30.58,67.0
30.59,66.0
30.6,68.0
30.61,77.0
30.62,62.0
30.63,64.0
30.64,63.0
30.65,65.0
30.66,67.0
30.67,79.0
30.68,73.0
30.69,71.0
30.7,65.0
30.71,71.0
30.72,78.0
30.73,74.0
30.74,65.0
30.75,62.0
30.76,69.0
30.77,77.0
30.78,75.0
30.79,58.0
30.8,77.0
30.81,65.0
30.82,62.0
30.83,69.0
30.84,50.0
30.85,80.0
30.86,71.0
30.87,67.0
30.88,66.0
30.89,64.0
30.9,75.0
30.91,62.0
30.92,86.0
30.93,80.0
30.94,73.0
30.95,72.0
30.96,69.0
30.97,77.0
30.98,61.0
30.99,52.0
31.0,65.0
31.01,74.0
31.02,59.0
31.03,73.0
31.04,62.0
31.05,67.0
31.06,62.0
31.07,55.0
31.08,64.0
31.09,64.0
31.1,62.0
31.11,54.0
31.12,82.0
31.13,66.0
31.14,55.0
31.15,81.0
31.16,88.0
31.17,78.0
31.18,74.0
31.19,68.0
31.2,79.0
31.21,72.0
31.22,71.0
31.23,55.0
31.24,86.0
31.25,59.0
31.26,59.0
31.27,70.0
31.28,50.0
31.29,66.0
31.3,76.0
31.31,75.0
31.32,58.0
31.33,80.0
31.34,61.0
31.35,69.0
31.36,78.0
31.37,73.0
31.38,62.0
31.39,76.0
31.4,69.0
31.41,82.0
31.42,65.0
31.43,72.0
31.44,69.0
31.45,80.0
31.46,91.0
31.47,76.0
31.48,77.0
31.49,54.0
31.5,96.0
31.51,89.0
31.52,103.0
31.53,105.0
31.54,106.0
31.55,97.0
31.56,112.0
31.57,91.0
31.58,81.0
31.59,87.0
31.6,84.0
31.61,95.0
31.62,82.0
31.63,78.0
31.64,78.0
31.65,69.0
31.66,65.0
31.67,59.0
31.68,94.0
31.69,62.0
31.7,86.0
31.71,75.0
31.72,82.0
31.73,69.0
31.74,73.0
31.75,74.0
31.76,67.0
31.77,78.0
31.78,74.0
31.79,82.0
31.8,67.0
31.81,58.0
31.82,62.0
31.83,66.0
31.84,63.0
31.85,65.0
31.86,73.0
31.87,65.0
31.88,77.0
31.89,65.0
31.9,78.0
31.91,62.0
31.92,63.0
31.93,45.0
31.94,70.0
31.95,66.0
31.96,51.0
31.97,78.0
31.98,69.0
31.99,81.0
32.0,71.0
32.01,65.0
32.02,67.0
32.03,68.0
32.04,79.0
32.05,81.0
32.06,72.0
32.07,73.0
32.08,90.0
32.09,69.0
32.1,87.0
32.11,77.0
32.12,76.0
32.13,71.0
32.14,85.0
32.15,64.0
32.16,61.0
32.17,48.0
32.18,76.0
32.19,65.0
32.2,64.0
32.21,77.0
32.22,79.0
32.23,72.0
32.24,67.0
32.25,84.0
32.26,73.0
32.27,74.0
32.28,62.0
32.29,74.0
32.3,81.0
32.31,73.0
32.32,91.0
32.33,85.0
32.34,111.0
32.35,78.0
32.36,94.0
32.37,114.0
32.38,107.0
32.39,106.0
32.4,87.0
32.41,92.0
32.42,74.0
32.43,107.0
32.44,95.0
32.45,77.0
32.46,83.0
32.47,92.0
32.48,81.0
32.49,89.0
32.5,84.0
32.51,87.0
32.52,95.0
32.53,70.0
32.54,67.0
32.55,73.0
32.56,97.0
32.57,76.0
32.58,71.0
32.59,76.0
32.6,72.0
32.61,83.0
32.62,82.0
32.63,85.0
32.64,76.0
32.65,71.0
32.66,87.0
32.67,85.0
32.68,73.0
32.69,86.0
32.7,72.0
32.71,85.0
32.72,82.0
32.73,96.0
32.74,96.0
32.75,99.0
32.76,126.0
32.77,120.0
32.78,139.0
32.79,141.0
32.8,153.0
32.81,196.0
32.82,171.0
32.83,165.0
32.84,153.0
32.85,149.0
32.86,149.0
32.87,152.0
32.88,145.0
32.89,130.0
32.9,121.0
32.91,111.0
32.92,119.0
32.93,111.0
32.94,94.0
32.95,84.0
32.96,96.0
32.97,83.0
32.98,73.0
32.99,78.0
33.0,84.0
33.01,88.0
33.02,81.0
33.03,77.0
33.04,74.0
33.05,81.0
33.06,75.0
33.07,76.0
33.08,62.0
33.09,76.0
33.1,68.0
33.11,60.0
33.12,77.0
33.13,71.0
33.14,64.0
33.15,83.0
33.16,61.0
33.17,76.0
33.18,68.0
33.19,67.0
33.2,79.0
33.21,59.0
33.22,90.0
33.23,73.0
33.24,53.0
33.25,72.0
33.26,70.0
33.27,81.0
33.28,82.0
33.29,57.0
33.3,76.0
33.31,79.0
33.32,68.0
33.33,81.0
33.34,59.0
33.35,73.0
33.36,69.0
33.37,75.0
33.38,78.0
33.39,72.0
33.4,70.0
33.41,78.0
33.42,76.0
33.43,74.0
33.44,77.0
33.45,59.0
33.46,81.0
33.47,80.0
33.48,64.0
33.49,80.0
33.5,69.0
33.51,79.0
33.52,67.0
33.53,81.0
33.54,74.0
33.55,74.0
33.56,65.0
33.57,64.0
33.58,70.0
33.59,71.0
33.6,59.0
33.61,65.0
33.62,75.0
33.63,78.0
33.64,82.0
33.65,65.0
33.66,70.0
33.67,71.0
33.68,74.0
33.69,70.0
33.7,65.0
33.71,78.0
33.72,67.0
33.73,60.0
33.74,67.0
33.75,98.0
33.76,71.0
33.77,74.0
33.78,69.0
33.79,68.0
33.8,73.0
33.81,67.0
33.82,76.0
33.83,65.0
33.84,65.0
33.85,72.0
33.86,70.0
33.87,77.0
33.88,90.0
33.89,87.0
33.9,74.0
33.91,61.0
33.92,67.0
33.93,69.0
33.94,61.0
33.95,72.0
33.96,63.0
33.97,62.0
33.98,82.0
33.99,90.0
34.0,68.0
34.01,79.0
34.02,71.0
34.03,72.0
34.04,69.0
34.05,70.0
34.06,77.0
34.07,77.0
34.08,76.0
34.09,84.0
34.1,66.0
34.11,67.0
34.12,55.0
34.13,81.0
34.14,90.0
34.15,85.0
34.16,82.0
34.17,83.0
34.18,83.0
34.19,84.0
34.2,64.0
34.21,85.0
34.22,86.0
34.23,78.0
34.24,90.0
34.25,88.0
34.26,128.0
34.27,127.0
34.28,138.0
34.29,137.0
34.3,109.0
34.31,115.0
34.32,102.0
34.33,106.0
34.34,104.0
34.35,103.0
34.36,107.0
34.37,102.0
34.38,101.0
34.39,106.0
34.4,79.0
34.41,77.0
34.42,91.0
34.43,73.0
34.44,95.0
34.45,85.0
34.46,70.0
34.47,62.0
34.48,80.0
34.49,72.0
34.5,67.0
34.51,69.0
34.52,69.0
34.53,68.0
34.54,79.0
34.55,74.0
34.56,71.0
34.57,74.0
34.58,68.0
34.59,90.0
34.6,78.0
34.61,78.0
34.62,74.0
34.63,83.0
34.64,72.0
34.65,72.0
34.66,71.0
34.67,73.0
34.68,54.0
34.69,63.0
34.7,70.0
34.71,70.0
34.72,81.0
34.73,63.0
34.74,89.0
34.75,78.0
34.76,69.0
34.77,86.0
34.78,74.0
34.79,72.0
34.8,70.0
34.81,80.0
34.82,72.0
34.83,77.0
34.84,74.0
34.85,72.0
34.86,94.0
34.87,78.0
34.88,69.0
34.89,75.0
34.9,78.0
34.91,76.0
34.92,74.0
34.93,90.0
34.94,88.0
34.95,95.0
34.96,91.0
34.97,89.0
34.98,91.0
34.99,99.0
35.0,123.0
35.01,107.0
35.02,135.0
35.03,126.0
35.04,101.0
35.05,96.0
35.06,84.0
35.07,96.0
35.08,91.0
35.09,97.0
35.1,106.0
35.11,92.0
35.12,94.0
35.13,97.0
35.14,90.0
35.15,85.0
35.16,88.0
35.17,86.0
35.18,61.0
35.19,68.0
35.2,73.0
35.21,70.0
35.22,76.0
35.23,76.0
35.24,62.0
35.25,70.0
35.26,69.0
35.27,70.0
35.28,87.0
35.29,69.0
35.3,79.0
35.31,74.0
35.32,64.0
35.33,81.0
35.34,71.0
35.35,69.0
35.36,67.0
35.37,85.0
35.38,66.0
35.39,72.0
35.4,69.0
35.41,74.0
35.42,60.0
35.43,74.0
35.44,89.0
35.45,70.0
35.46,71.0
35.47,61.0
35.48,78.0
35.49,71.0
35.5,65.0
35.51,55.0
35.52,76.0
35.53,67.0
35.54,73.0
35.55,78.0
35.56,85.0
35.57,56.0
35.58,61.0
35.59,60.0
35.6,71.0
35.61,66.0
35.62,61.0
35.63,68.0
35.64,58.0
35.65,78.0
35.66,64.0
35.67,69.0
35.68,55.0
35.69,72.0
35.7,68.0
35.71,76.0
35.72,70.0
35.73,74.0
35.74,83.0
35.75,63.0
35.76,82.0
35.77,73.0
35.78,70.0
35.79,81.0
35.8,75.0
35.81,75.0
35.82,91.0
35.83,61.0
35.84,76.0
35.85,72.0
35.86,62.0
35.87,79.0
35.88,65.0
35.89,86.0
35.9,75.0
35.91,72.0
35.92,74.0
35.93,72.0
35.94,74.0
35.95,85.0
35.96,62.0
35.97,60.0
35.98,70.0
35.99,79.0
36.0,64.0
36.01,64.0
36.02,62.0
36.03,71.0
36.04,81.0
36.05,72.0
36.06,81.0
36.07,71.0
36.08,51.0
36.09,75.0
36.1,70.0
36.11,65.0
36.12,78.0
36.13,76.0
36.14,71.0
36.15,75.0
36.16,73.0
36.17,73.0
36.18,72.0
36.19,67.0
36.2,77.0
36.21,79.0
36.22,80.0
36.23,63.0
36.24,54.0
36.25,76.0
36.26,65.0
36.27,60.0
36.28,60.0
36.29,61.0
36.3,78.0
36.31,84.0
36.32,71.0
36.33,67.0
36.34,72.0
36.35,71.0
36.36,58.0
36.37,81.0
36.38,64.0
36.39,82.0
36.4,54.0
36.41,71.0
36.42,57.0
36.43,58.0
36.44,68.0
36.45,74.0
36.46,72.0
36.47,70.0
36.48,68.0
36.49,72.0
36.5,89.0
36.51,90.0
36.52,80.0
36.53,76.0
36.54,68.0
36.55,69.0
36.56,72.0
36.57,74.0
36.58,68.0
36.59,84.0
36.6,66.0
36.61,62.0
36.62,72.0
36.63,69.0
36.64,83.0
36.65,67.0
36.66,88.0
36.67,70.0
36.68,79.0
36.69,73.0
36.7,68.0
36.71,69.0
36.72,76.0
36.73,87.0
36.74,73.0
36.75,78.0
36.76,80.0
36.77,67.0
36.78,72.0
36.79,73.0
36.8,55.0
36.81,73.0
36.82,59.0
36.83,69.0
36.84,64.0
36.85,56.0
36.86,66.0
36.87,80.0
36.88,76.0
36.89,68.0
36.9,64.0
36.91,72.0
36.92,69.0
36.93,66.0
36.94,84.0
36.95,72.0
36.96,77.0
36.97,64.0
36.98,77.0
36.99,87.0
37.0,64.0
37.01,71.0
37.02,45.0
37.03,53.0
37.04,70.0
37.05,79.0
37.06,69.0
37.07,60.0
37.08,72.0
37.09,68.0
37.1,74.0
37.11,65.0
37.12,69.0
37.13,68.0
37.14,51.0
37.15,83.0
37.16,81.0
37.17,60.0
37.18,69.0
37.19,85.0
37.2,64.0
37.21,71.0
37.22,66.0
37.23,73.0
37.24,63.0
37.25,83.0
37.26,65.0
37.27,74.0
37.28,66.0
37.29,82.0
37.3,80.0
37.31,73.0
37.32,77.0
37.33,93.0
37.34,76.0
37.35,84.0
37.36,89.0
37.37,78.0
37.38,70.0
37.39,84.0
37.4,84.0
37.41,85.0
37.42,66.0
37.43,78.0
37.44,80.0
37.45,71.0
37.46,84.0
37.47,69.0
37.48,64.0
37.49,62.0
37.5,73.0
37.51,78.0
37.52,80.0
37.53,70.0
37.54,77.0
37.55,56.0
37.56,69.0
37.57,64.0
37.58,69.0
37.59,68.0
37.6,55.0
37.61,81.0
37.62,72.0
37.63,76.0
37.64,71.0
37.65,62.0
37.66,62.0
37.67,68.0
37.68,76.0
37.69,68.0
37.7,68.0
37.71,66.0
37.72,72.0
37.73,87.0
37.74,67.0
37.75,79.0
37.76,74.0
37.77,70.0
37.78,71.0
37.79,67.0
37.8,66.0
37.81,61.0
37.82,88.0
37.83,72.0
37.84,73.0
37.85,70.0
37.86,58.0
37.87,62.0
37.88,72.0
37.89,80.0
37.9,88.0
37.91,80.0
37.92,67.0
37.93,71.0
37.94,73.0
37.95,78.0
37.96,76.0
37.97,67.0
37.98,73.0
37.99,75.0
38.0,82.0
38.01,80.0
38.02,98.0
38.03,96.0
38.04,99.0
38.05,111.0
38.06,112.0
38.07,109.0
38.08,101.0
38.09,108.0
38.1,89.0
38.11,78.0
38.12,102.0
38.13,90.0
38.14,86.0
38.15,99.0
38.16,95.0
38.17,89.0
38.18,96.0
38.19,78.0
38.2,78.0
38.21,101.0
38.22,99.0
38.23,95.0
38.24,88.0
38.25,93.0
38.26,80.0
38.27,74.0
38.28,90.0
38.29,89.0
38.3,72.0
38.31,80.0
38.32,95.0
38.33,84.0
38.34,79.0
38.35,94.0
38.36,80.0
38.37,92.0
38.38,81.0
38.39,67.0
38.4,73.0
38.41,93.0
38.42,70.0
38.43,73.0
38.44,67.0
38.45,63.0
38.46,71.0
38.47,70.0
38.48,63.0
38.49,87.0
38.5,63.0
38.51,72.0
38.52,79.0
38.53,80.0
38.54,89.0
38.55,65.0
38.56,78.0
38.57,63.0
38.58,63.0
38.59,96.0
38.6,71.0
38.61,72.0
38.62,79.0
38.63,85.0
38.64,82.0
38.65,81.0
38.66,61.0
38.67,67.0
38.68,79.0
38.69,60.0
38.7,66.0
38.71,81.0
38.72,76.0
38.73,57.0
38.74,68.0
38.75,76.0
38.76,76.0
38.77,71.0
38.78,73.0
38.79,70.0
38.8,80.0
38.81,85.0
38.82,79.0
38.83,76.0
38.84,67.0
38.85,91.0
38.86,71.0
38.87,74.0
38.88,60.0
38.89,64.0
38.9,74.0
38.91,76.0
38.92,68.0
38.93,80.0
38.94,81.0
38.95,78.0
38.96,67.0
38.97,79.0
38.98,65.0
38.99,80.0
39.0,76.0
39.01,78.0
39.02,68.0
39.03,91.0
39.04,80.0
39.05,64.0
39.06,70.0
39.07,78.0
39.08,90.0
39.09,80.0
39.1,77.0
39.11,92.0
39.12,79.0
39.13,81.0
39.14,86.0
39.15,78.0
39.16,79.0
39.17,76.0
39.18,76.0
39.19,61.0
39.2,78.0
39.21,85.0
39.22,74.0
39.23,67.0
39.24,76.0
39.25,77.0
39.26,66.0
39.27,86.0
39.28,61.0
39.29,90.0
39.3,64.0
39.31,75.0
39.32,76.0
39.33,78.0
39.34,69.0
39.35,70.0
39.36,88.0
39.37,74.0
39.38,53.0
39.39,72.0
39.4,55.0
39.41,69.0
39.42,64.0
39.43,68.0
39.44,63.0
39.45,64.0
39.46,74.0
39.47,82.0
39.48,70.0
39.49,87.0
39.5,72.0
39.51,69.0
39.52,59.0
39.53,72.0
39.54,71.0
39.55,73.0
39.56,78.0
39.57,73.0
39.58,73.0
39.59,70.0
39.6,82.0
39.61,76.0
39.62,62.0
39.63,80.0
39.64,76.0
39.65,68.0
39.66,67.0
39.67,77.0
39.68,58.0
39.69,88.0
39.7,49.0
39.71,60.0
39.72,63.0
39.73,78.0
39.74,76.0
39.75,59.0
39.76,72.0
39.77,83.0
39.78,70.0
39.79,77.0
39.8,64.0
39.81,55.0
39.82,65.0
39.83,79.0
39.84,77.0
39.85,69.0
39.86,62.0
39.87,76.0
39.88,77.0
39.89,77.0
39.9,65.0
39.91,83.0
39.92,74.0
39.93,74.0
39.94,63.0
39.95,72.0
39.96,64.0
39.97,62.0
39.98,66.0
39.99,66.0
40.0,74.0
40.01,59.0
40.02,82.0
40.03,67.0
40.04,81.0
40.05,78.0
40.06,70.0
40.07,53.0
40.08,70.0
40.09,57.0
40.1,60.0
40.11,72.0
40.12,57.0
40.13,37.0
40.14,76.0
40.15,63.0
40.16,79.0
40.17,80.0
40.18,66.0
40.19,76.0
40.2,80.0
40.21,76.0
40.22,68.0
40.23,66.0
40.24,70.0
40.25,82.0
40.26,86.0
40.27,49.0
40.28,63.0
40.29,73.0
40.3,70.0
40.31,76.0
40.32,70.0
40.33,69.0
40.34,70.0
40.35,74.0
40.36,68.0
40.37,78.0
40.38,77.0
40.39,73.0
40.4,74.0
40.41,81.0
40.42,58.0
40.43,85.0
40.44,79.0
40.45,78.0
40.46,68.0
40.47,83.0
40.48,69.0
40.49,76.0
40.5,78.0
40.51,75.0
40.52,42.0
40.53,63.0
40.54,69.0
40.55,78.0
40.56,84.0
40.57,78.0
40.58,80.0
40.59,70.0
40.6,72.0
40.61,61.0
40.62,69.0
40.63,73.0
40.64,63.0
40.65,65.0
40.66,67.0
40.67,70.0
40.68,80.0
40.69,71.0
40.7,91.0
40.71,69.0
40.72,65.0
40.73,78.0
40.74,71.0
40.75,76.0
40.76,72.0
40.77,74.0
40.78,81.0
40.79,78.0
40.8,69.0
40.81,82.0
40.82,71.0
40.83,65.0
40.84,64.0
40.85,84.0
40.86,78.0
40.87,71.0
40.88,79.0
40.89,83.0
40.9,61.0
40.91,59.0
40.92,62.0
40.93,57.0
40.94,67.0
40.95,77.0
40.96,71.0
40.97,54.0
40.98,64.0
40.99,69.0
41.0,56.0
41.01,71.0
41.02,77.0
41.03,86.0
41.04,72.0
41.05,72.0
41.06,80.0
41.07,82.0
41.08,63.0
41.09,79.0
41.1,75.0
41.11,78.0
41.12,89.0
41.13,64.0
41.14,70.0
41.15,78.0
41.16,62.0
41.17,70.0
41.18,83.0
41.19,66.0
41.2,82.0
41.21,72.0
41.22,82.0
41.23,61.0
41.24,62.0
41.25,69.0
41.26,72.0
41.27,69.0
41.28,69.0
41.29,64.0
41.3,82.0
41.31,71.0
41.32,82.0
41.33,86.0
41.34,96.0
41.35,89.0
41.36,108.0
41.37,109.0
41.38,139.0
41.39,136.0
41.4,109.0
41.41,105.0
41.42,107.0
41.43,106.0
41.44,89.0
41.45,81.0
41.46,86.0
41.47,89.0
41.48,111.0
41.49,94.0
41.5,105.0
41.51,82.0
41.52,73.0
41.53,85.0
41.54,84.0
41.55,87.0
41.56,69.0
41.57,83.0
41.58,94.0
41.59,108.0
41.6,65.0
41.61,78.0
41.62,80.0
41.63,64.0
41.64,72.0
41.65,86.0
41.66,71.0
41.67,76.0
41.68,80.0
41.69,69.0
41.7,80.0
41.71,69.0
41.72,84.0
41.73,97.0
41.74,73.0
41.75,77.0
41.76,83.0
41.77,70.0
41.78,72.0
41.79,70.0
41.8,85.0
41.81,77.0
41.82,90.0
41.83,73.0
41.84,72.0
41.85,68.0
41.86,73.0
41.87,79.0
41.88,76.0
41.89,73.0
41.9,71.0
41.91,87.0
41.92,69.0
41.93,68.0
41.94,63.0
41.95,81.0
41.96,57.0
41.97,79.0
41.98,80.0
41.99,64.0
42.0,66.0
42.01,67.0
42.02,67.0
42.03,74.0
42.04,68.0
42.05,82.0
42.06,73.0
42.07,73.0
42.08,74.0
42.09,77.0
42.1,74.0
42.11,66.0
42.12,90.0
42.13,67.0
42.14,55.0
42.15,79.0
42.16,69.0
42.17,72.0
42.18,85.0
42.19,69.0
42.2,58.0
42.21,80.0
42.22,72.0
42.23,82.0
42.24,89.0
42.25,68.0
42.26,67.0
42.27,62.0
42.28,69.0
42.29,78.0
42.3,62.0
42.31,77.0
42.32,83.0
42.33,77.0
42.34,74.0
42.35,79.0
42.36,85.0
42.37,55.0
42.38,74.0
42.39,64.0
42.4,63.0
42.41,71.0
42.42,73.0
42.43,61.0
42.44,72.0
42.45,77.0
42.46,69.0
42.47,65.0
42.48,71.0
42.49,66.0
42.5,58.0
42.51,85.0
42.52,66.0
42.53,71.0
42.54,86.0
42.55,79.0
42.56,79.0
42.57,59.0
42.58,86.0
42.59,67.0
42.6,67.0
42.61,80.0
42.62,67.0
42.63,74.0
42.64,57.0
42.65,72.0
42.66,55.0
42.67,74.0
42.68,63.0
42.69,65.0
42.7,81.0
42.71,77.0
42.72,69.0
42.73,68.0
42.74,60.0
42.75,73.0
42.76,64.0
42.77,94.0
42.78,73.0
42.79,73.0
42.8,78.0
42.81,75.0
42.82,92.0
42.83,69.0
42.84,54.0
42.85,66.0
42.86,58.0
42.87,60.0
42.88,65.0
42.89,56.0
42.9,72.0
42.91,84.0
42.92,80.0
42.93,69.0
42.94,72.0
42.95,68.0
42.96,84.0
42.97,58.0
42.98,61.0
42.99,73.0
43.0,62.0
43.01,74.0
43.02,78.0
43.03,60.0
43.04,72.0
43.05,63.0
43.06,77.0
43.07,62.0
43.08,65.0
43.09,80.0
43.1,68.0
43.11,68.0
43.12,78.0
43.13,57.0
43.14,75.0
43.15,74.0
43.16,52.0
43.17,81.0
43.18,68.0
43.19,77.0
43.2,64.0
43.21,76.0
43.22,79.0
43.23,58.0
43.24,83.0
43.25,63.0
43.26,73.0
43.27,49.0
43.28,77.0
43.29,77.0
43.3,57.0
43.31,76.0
43.32,68.0
43.33,70.0
43.34,53.0
43.35,60.0
43.36,63.0
43.37,82.0
43.38,66.0
43.39,57.0
43.4,71.0
43.41,65.0
43.42,69.0
43.43,74.0
43.44,79.0
43.45,64.0
43.46,64.0
43.47,64.0
43.48,71.0
43.49,82.0
43.5,60.0
43.51,62.0
43.52,74.0
43.53,69.0
43.54,63.0
43.55,65.0
43.56,76.0
43.57,63.0
43.58,79.0
43.59,70.0
43.6,73.0
43.61,69.0
43.62,84.0
43.63,75.0
43.64,69.0
43.65,84.0
43.66,85.0
43.67,79.0
43.68,79.0
43.69,74.0
43.7,64.0
43.71,89.0
43.72,81.0
43.73,63.0
43.74,76.0
43.75,70.0
43.76,61.0
43.77,84.0
43.78,77.0
43.79,62.0
43.8,78.0
43.81,68.0
43.82,75.0
43.83,64.0
43.84,79.0
43.85,90.0
43.86,81.0
43.87,90.0
43.88,79.0
43.89,66.0
43.9,89.0
43.91,81.0
43.92,93.0
43.93,78.0
43.94,80.0
43.95,79.0
43.96,97.0
43.97,89.0
43.98,77.0
43.99,74.0
44.0,83.0
44.01,79.0
44.02,75.0
44.03,82.0
44.04,68.0
44.05,84.0
44.06,71.0
44.07,61.0
44.08,51.0
44.09,76.0
44.1,66.0
44.11,82.0
44.12,72.0
44.13,67.0
44.14,77.0
44.15,75.0
44.16,66.0
44.17,84.0
44.18,67.0
44.19,72.0
44.2,63.0
44.21,65.0
44.22,69.0
44.23,63.0
44.24,83.0
44.25,83.0
44.26,87.0
44.27,78.0
44.28,74.0
44.29,75.0
44.3,78.0
44.31,73.0
44.32,69.0
44.33,80.0
44.34,100.0
44.35,77.0
44.36,97.0
44.37,99.0
44.38,86.0
44.39,84.0
44.4,107.0
44.41,79.0
44.42,85.0
44.43,86.0
44.44,87.0
44.45,79.0
44.46,77.0
44.47,112.0
44.48,114.0
44.49,108.0
44.5,107.0
44.51,110.0
44.52,108.0
44.53,94.0
44.54,98.0
44.55,84.0
44.56,96.0
44.57,100.0
44.58,80.0
44.59,89.0
44.6,93.0
44.61,77.0
44.62,103.0
44.63,87.0
44.64,62.0
44.65,88.0
44.66,86.0
44.67,82.0
44.68,64.0
44.69,70.0
44.7,73.0
44.71,64.0
44.72,82.0
44.73,84.0
44.74,65.0
44.75,83.0
44.76,75.0
44.77,71.0
44.78,75.0
44.79,63.0
44.8,79.0
44.81,65.0
44.82,78.0
44.83,77.0
44.84,76.0
44.85,72.0
44.86,77.0
44.87,66.0
44.88,80.0
44.89,79.0
44.9,80.0
44.91,70.0
44.92,87.0
44.93,74.0
44.94,69.0
44.95,62.0
44.96,67.0
44.97,68.0
44.98,72.0
44.99,66.0
45.0,86.0
45.01,77.0
45.02,75.0
45.03,78.0
45.04,78.0
45.05,53.0
45.06,57.0
45.07,55.0
45.08,82.0
45.09,71.0
45.1,79.0
45.11,62.0
45.12,76.0
45.13,83.0
45.14,62.0
45.15,63.0
45.16,59.0
45.17,66.0
45.18,66.0
45.19,72.0
45.2,64.0
45.21,68.0
45.22,84.0
45.23,62.0
45.24,59.0
45.25,65.0
45.26,70.0
45.27,66.0
45.28,73.0
45.29,69.0
45.3,79.0
45.31,74.0
45.32,74.0
45.33,84.0
45.34,78.0
45.35,69.0
45.36,77.0
45.37,57.0
45.38,68.0
45.39,64.0
45.4,69.0
45.41,70.0
45.42,73.0
45.43,82.0
45.44,76.0
45.45,86.0
45.46,76.0
45.47,83.0
45.48,77.0
45.49,82.0
45.5,64.0
45.51,64.0
45.52,68.0
45.53,74.0
45.54,70.0
45.55,73.0
45.56,76.0
45.57,78.0
45.58,79.0
45.59,71.0
45.6,66.0
45.61,78.0
45.62,80.0
45.63,63.0
45.64,71.0
45.65,78.0
45.66,74.0
45.67,62.0
45.68,74.0
45.69,84.0
45.7,74.0
45.71,80.0
45.72,67.0
45.73,72.0
45.74,82.0
45.75,73.0
45.76,77.0
45.77,85.0
45.78,77.0
45.79,71.0
45.8,68.0
45.81,76.0
45.82,71.0
45.83,73.0
45.84,76.0
45.85,73.0
45.86,53.0
45.87,87.0
45.88,89.0
45.89,88.0
45.9,54.0
45.91,58.0
45.92,86.0
45.93,58.0
45.94,81.0
45.95,54.0
45.96,67.0
45.97,71.0
45.98,70.0
45.99,80.0
46.0,88.0
46.01,64.0
46.02,76.0
46.03,88.0
46.04,85.0
46.05,48.0
46.06,83.0
46.07,85.0
46.08,70.0
46.09,62.0
46.1,76.0
46.11,80.0
46.12,64.0
46.13,85.0
46.14,75.0
46.15,62.0
46.16,74.0
46.17,72.0
46.18,71.0
46.19,71.0
46.2,54.0
46.21,70.0
46.22,60.0
46.23,73.0
46.24,73.0
46.25,62.0
46.26,71.0
46.27,63.0
46.28,65.0
46.29,67.0
46.3,64.0
46.31,62.0
46.32,57.0
46.33,70.0
46.34,69.0
46.35,71.0
46.36,75.0
46.37,81.0
46.38,85.0
46.39,87.0
46.4,68.0
46.41,89.0
46.42,74.0
46.43,74.0
46.44,63.0
46.45,74.0
46.46,87.0
46.47,85.0
46.48,73.0
46.49,94.0
46.5,68.0
46.51,73.0
46.52,68.0
46.53,71.0
46.54,77.0
46.55,81.0
46.56,65.0
46.57,70.0
46.58,89.0
46.59,82.0
46.6,65.0
46.61,57.0
46.62,59.0
46.63,87.0
46.64,75.0
46.65,73.0
46.66,71.0
46.67,63.0
46.68,66.0
46.69,75.0
46.7,61.0
46.71,63.0
46.72,79.0
46.73,71.0
46.74,71.0
46.75,60.0
46.76,75.0
46.77,74.0
46.78,77.0
46.79,59.0
46.8,72.0
46.81,65.0
46.82,73.0
46.83,62.0
46.84,75.0
46.85,66.0
46.86,66.0
46.87,82.0
46.88,71.0
46.89,68.0
46.9,69.0
46.91,60.0
46.92,62.0
46.93,68.0
46.94,57.0
46.95,66.0
46.96,77.0
46.97,70.0
46.98,77.0
46.99,65.0
47.0,80.0
47.01,64.0
47.02,63.0
47.03,59.0
47.04,68.0
47.05,59.0
47.06,63.0
47.07,59.0
47.08,64.0
47.09,74.0
47.1,64.0
47.11,72.0
47.12,80.0
47.13,70.0
47.14,70.0
47.15,74.0
47.16,62.0
47.17,63.0
47.18,60.0
47.19,69.0
47.2,84.0
47.21,62.0
47.22,74.0
47.23,90.0
47.24,85.0
47.25,73.0
47.26,66.0
47.27,71.0
47.28,67.0
47.29,69.0
47.3,71.0
47.31,72.0
47.32,63.0
47.33,59.0
47.34,67.0
47.35,72.0
47.36,66.0
47.37,83.0
47.38,61.0
47.39,70.0
47.4,70.0
47.41,63.0
47.42,62.0
47.43,87.0
47.44,78.0
47.45,81.0
47.46,62.0
47.47,77.0
47.48,99.0
47.49,69.0
47.5,79.0
47.51,84.0
47.52,67.0
47.53,83.0
47.54,69.0
47.55,71.0
47.56,73.0
47.57,68.0
47.58,77.0
47.59,71.0
47.6,59.0
47.61,71.0
47.62,64.0
47.63,64.0
47.64,74.0
47.65,59.0
47.66,72.0
47.67,68.0
47.68,59.0
47.69,72.0
47.7,73.0
47.71,72.0
47.72,73.0
47.73,64.0
47.74,82.0
47.75,70.0
47.76,68.0
47.77,80.0
47.78,79.0
47.79,60.0
47.8,67.0
47.81,77.0
47.82,76.0
47.83,81.0
47.84,64.0
47.85,84.0
47.86,78.0
47.87,75.0
47.88,84.0
47.89,76.0
47.9,89.0
47.91,69.0
47.92,70.0
47.93,87.0
47.94,72.0
47.95,68.0
47.96,74.0
47.97,75.0
47.98,68.0
47.99,83.0
48.0,93.0
48.01,62.0
48.02,82.0
48.03,75.0
48.04,70.0
48.05,67.0
48.06,74.0
48.07,76.0
48.08,83.0
48.09,67.0
48.1,63.0
48.11,80.0
48.12,90.0
48.13,64.0
48.14,64.0
48.15,63.0
48.16,82.0
48.17,69.0
48.18,77.0
48.19,68.0
48.2,85.0
48.21,63.0
48.22,70.0
48.23,73.0
48.24,60.0
48.25,72.0
48.26,66.0
48.27,70.0
48.28,66.0
48.29,63.0
48.3,68.0
48.31,72.0
48.32,70.0
48.33,84.0
48.34,89.0
48.35,90.0
48.36,91.0
48.37,75.0
48.38,69.0
48.39,79.0
48.4,90.0
48.41,83.0
48.42,78.0
48.43,63.0
48.44,77.0
48.45,70.0
48.46,73.0
48.47,80.0
48.48,55.0
48.49,67.0
48.5,76.0
48.51,66.0
48.52,73.0
48.53,68.0
48.54,72.0
48.55,77.0
48.56,67.0
48.57,73.0
48.58,79.0
48.59,69.0
48.6,78.0
48.61,90.0
48.62,69.0
48.63,96.0
48.64,81.0
48.65,69.0
48.66,53.0
48.67,85.0
48.68,68.0
48.69,78.0
48.7,60.0
48.71,59.0
48.72,74.0
48.73,70.0
48.74,63.0
48.75,68.0
48.76,59.0
48.77,59.0
48.78,79.0
48.79,73.0
48.8,75.0
48.81,79.0
48.82,63.0
48.83,69.0
48.84,70.0
48.85,64.0
48.86,84.0
48.87,65.0
48.88,67.0
48.89,77.0
48.9,71.0
48.91,77.0
48.92,64.0
48.93,70.0
48.94,79.0
48.95,65.0
48.96,67.0
48.97,74.0
48.98,77.0
48.99,62.0
49.0,77.0
49.01,80.0
49.02,62.0
49.03,73.0
49.04,78.0
49.05,63.0
49.06,79.0
49.07,66.0
49.08,71.0
49.09,58.0
49.1,65.0
49.11,61.0
49.12,67.0
49.13,77.0
49.14,66.0
49.15,70.0
49.16,64.0
49.17,51.0
49.18,74.0
49.19,72.0
49.2,74.0
49.21,69.0
49.22,69.0
49.23,80.0
49.24,80.0
49.25,66.0
49.26,85.0
49.27,76.0
49.28,62.0
49.29,71.0
49.3,83.0
49.31,65.0
49.32,67.0
49.33,76.0
49.34,67.0
49.35,66.0
49.36,68.0
49.37,56.0
49.38,73.0
49.39,84.0
49.4,86.0
49.41,58.0
49.42,81.0
49.43,74.0
49.44,84.0
49.45,60.0
49.46,87.0
49.47,70.0
49.48,73.0
49.49,65.0
49.5,75.0
49.51,47.0
49.52,84.0
49.53,60.0
49.54,57.0
49.55,81.0
49.56,61.0
49.57,68.0
49.58,87.0
49.59,91.0
49.6,53.0
49.61,72.0
49.62,82.0
49.63,72.0
49.64,93.0
49.65,62.0
49.66,65.0
49.67,64.0
49.68,75.0
49.69,77.0
49.7,78.0
49.71,82.0
49.72,77.0
49.73,79.0
49.74,68.0
49.75,83.0
49.76,72.0
49.77,62.0
49.78,72.0
49.79,76.0
49.8,64.0
49.81,65.0
49.82,84.0
49.83,68.0
49.84,63.0
49.85,79.0
49.86,74.0
49.87,82.0
49.88,74.0
49.89,69.0
49.9,70.0
49.91,62.0
49.92,67.0
49.93,77.0
49.94,68.0
49.95,76.0
49.96,66.0
49.97,59.0
49.98,74.0
49.99,69.0
50.0,82.0
50.01,71.0
50.02,71.0
50.03,78.0
50.04,82.0
50.05,70.0
50.06,59.0
50.07,93.0
50.08,75.0
50.09,74.0
50.1,81.0
50.11,87.0
50.12,77.0
50.13,72.0
50.14,59.0
50.15,99.0
50.16,70.0
50.17,79.0
50.18,87.0
50.19,69.0
50.2,72.0
50.21,72.0
50.22,65.0
50.23,89.0
50.24,78.0
50.25,70.0
50.26,68.0
50.27,77.0
50.28,77.0
50.29,67.0
50.3,57.0
50.31,62.0
50.32,64.0
50.33,72.0
50.34,83.0
50.35,66.0
50.36,59.0
50.37,83.0
50.38,74.0
50.39,69.0
50.4,87.0
50.41,69.0
50.42,75.0
50.43,75.0
50.44,70.0
50.45,84.0
50.46,65.0
50.47,64.0
50.48,72.0
50.49,87.0
50.5,74.0
50.51,67.0
50.52,68.0
50.53,70.0
50.54,68.0
50.55,66.0
50.56,67.0
50.57,59.0
50.58,79.0
50.59,68.0
50.6,80.0
50.61,70.0
50.62,82.0
50.63,85.0
50.64,77.0
50.65,67.0
50.66,63.0
50.67,85.0
50.68,75.0
50.69,74.0
50.7,77.0
50.71,56.0
50.72,64.0
50.73,60.0
50.74,63.0
50.75,63.0
50.76,93.0
50.77,83.0
50.78,67.0
50.79,52.0
50.8,63.0
50.81,75.0
50.82,76.0
50.83,79.0
50.84,78.0
50.85,58.0
50.86,66.0
50.87,55.0
50.88,75.0
50.89,54.0
50.9,71.0
50.91,70.0
50.92,73.0
50.93,84.0
50.94,77.0
50.95,74.0
50.96,72.0
50.97,71.0
50.98,71.0
50.99,70.0
51.0,63.0
51.01,85.0
51.02,71.0
51.03,77.0
51.04,62.0
51.05,68.0
51.06,74.0
51.07,70.0
51.08,51.0
51.09,65.0
51.1,64.0
51.11,73.0
51.12,71.0
51.13,86.0
51.14,73.0
51.15,68.0
51.16,67.0
51.17,77.0
51.18,81.0
51.19,69.0
51.2,78.0
51.21,72.0
51.22,93.0
51.23,86.0
51.24,66.0
51.25,79.0
51.26,56.0
51.27,78.0
51.28,70.0
51.29,80.0
51.3,63.0
51.31,59.0
51.32,62.0
51.33,59.0
51.34,56.0
51.35,71.0
51.36,44.0
51.37,64.0
51.38,72.0
51.39,76.0
51.4,71.0
51.41,72.0
51.42,59.0
51.43,81.0
51.44,62.0
51.45,90.0
51.46,75.0
51.47,82.0
51.48,80.0
51.49,74.0
51.5,75.0
51.51,70.0
51.52,80.0
51.53,82.0
51.54,60.0
51.55,61.0
51.56,77.0
51.57,77.0
51.58,82.0
51.59,79.0
51.6,47.0
51.61,77.0
51.62,77.0
51.63,91.0
51.64,63.0
51.65,83.0
51.66,72.0
51.67,69.0
51.68,77.0
51.69,72.0
51.7,77.0
51.71,70.0
51.72,65.0
51.73,79.0
51.74,74.0
51.75,68.0
51.76,59.0
51.77,69.0
51.78,66.0
51.79,86.0
51.8,72.0
51.81,71.0
51.82,77.0
51.83,70.0
51.84,62.0
51.85,86.0
51.86,61.0
51.87,63.0
51.88,78.0
51.89,64.0
51.9,56.0
51.91,72.0
51.92,73.0
51.93,64.0
51.94,64.0
51.95,87.0
51.96,67.0
51.97,61.0
51.98,67.0
51.99,65.0
52.0,65.0
52.01,71.0
52.02,80.0
52.03,62.0
52.04,69.0
52.05,76.0
52.06,85.0
52.07,68.0
52.08,62.0
52.09,85.0
52.1,69.0
52.11,64.0
52.12,67.0
52.13,83.0
52.14,63.0
52.15,62.0
52.16,68.0
52.17,52.0
52.18,67.0
52.19,71.0
52.2,72.0
52.21,80.0
52.22,88.0
52.23,75.0
52.24,81.0
52.25,68.0
52.26,63.0
52.27,59.0
52.28,64.0
52.29,62.0
52.3,58.0
52.31,60.0
52.32,78.0
52.33,67.0
52.34,89.0
52.35,62.0
52.36,79.0
52.37,73.0
52.38,66.0
52.39,66.0
52.4,62.0
52.41,61.0
52.42,51.0
52.43,76.0
52.44,77.0
52.45,62.0
52.46,75.0
52.47,63.0
52.48,74.0
52.49,69.0
52.5,83.0
52.51,60.0
52.52,78.0
52.53,68.0
52.54,73.0
52.55,81.0
52.56,76.0
52.57,80.0
52.58,71.0
52.59,59.0
52.6,88.0
52.61,67.0
52.62,95.0
52.63,67.0
52.64,77.0
52.65,75.0
52.66,53.0
52.67,67.0
52.68,75.0
52.69,68.0
52.7,83.0
52.71,75.0
52.72,75.0
52.73,81.0
52.74,78.0
52.75,76.0
52.76,85.0
52.77,79.0
52.78,81.0
52.79,82.0
52.8,68.0
52.81,66.0
52.82,79.0
52.83,58.0
52.84,70.0
52.85,69.0
52.86,78.0
52.87,67.0
52.88,65.0
52.89,71.0
52.9,65.0
52.91,66.0
52.92,76.0
52.93,66.0
52.94,56.0
52.95,75.0
52.96,55.0
52.97,57.0
52.98,76.0
52.99,72.0
53.0,66.0
53.01,71.0
53.02,74.0
53.03,70.0
53.04,65.0
53.05,75.0
53.06,46.0
53.07,60.0
53.08,74.0
53.09,72.0
53.1,73.0
53.11,65.0
53.12,55.0
53.13,70.0
53.14,82.0
53.15,65.0
53.16,73.0
53.17,65.0
53.18,67.0
53.19,64.0
53.2,79.0
53.21,61.0
53.22,75.0
53.23,70.0
53.24,67.0
53.25,66.0
53.26,84.0
53.27,72.0
53.28,69.0
53.29,88.0
53.3,91.0
53.31,68.0
53.32,72.0
53.33,71.0
53.34,73.0
53.35,82.0
53.36,87.0
53.37,67.0
53.38,74.0
53.39,74.0
53.4,71.0
53.41,71.0
53.42,80.0
53.43,69.0
53.44,71.0
53.45,78.0
53.46,71.0
53.47,77.0
53.48,73.0
53.49,78.0
53.5,62.0
53.51,62.0
53.52,55.0
53.53,65.0
53.54,55.0
53.55,81.0
53.56,74.0
53.57,74.0
53.58,87.0
53.59,72.0
53.6,72.0
53.61,60.0
53.62,65.0
53.63,82.0
53.64,70.0
53.65,69.0
53.66,70.0
53.67,74.0
53.68,85.0
53.69,88.0
53.7,65.0
53.71,75.0
53.72,65.0
53.73,80.0
53.74,82.0
53.75,81.0
53.76,63.0
53.77,79.0
53.78,69.0
53.79,67.0
53.8,81.0
53.81,84.0
53.82,94.0
53.83,81.0
53.84,83.0
53.85,72.0
53.86,78.0
53.87,71.0
53.88,79.0
53.89,76.0
53.9,83.0
53.91,84.0
53.92,74.0
53.93,74.0
53.94,87.0
53.95,87.0
53.96,100.0
53.97,78.0
53.98,74.0
53.99,73.0
54.0,66.0
54.01,76.0
54.02,88.0
54.03,62.0
54.04,74.0
54.05,93.0
54.06,68.0
54.07,82.0
54.08,73.0
54.09,74.0
54.1,76.0
54.11,75.0
54.12,68.0
54.13,72.0
54.14,65.0
54.15,67.0
54.16,67.0
54.17,77.0
54.18,75.0
54.19,77.0
54.2,73.0
54.21,73.0
54.22,79.0
54.23,64.0
54.24,81.0
54.25,64.0
54.26,79.0
54.27,71.0
54.28,53.0
54.29,69.0
54.3,82.0
54.31,78.0
54.32,69.0
54.33,68.0
54.34,75.0
54.35,63.0
54.36,56.0
54.37,72.0
54.38,68.0
54.39,63.0
54.4,81.0
54.41,65.0
54.42,70.0
54.43,68.0
54.44,82.0
54.45,66.0
54.46,73.0
54.47,88.0
54.48,71.0
54.49,83.0
54.5,65.0
54.51,79.0
54.52,63.0
54.53,72.0
54.54,63.0
54.55,72.0
54.56,68.0
54.57,77.0
54.58,69.0
54.59,62.0
54.6,72.0
54.61,78.0
54.62,66.0
54.63,66.0
54.64,80.0
54.65,65.0
54.66,65.0
54.67,80.0
54.68,78.0
54.69,65.0
54.7,70.0
54.71,70.0
54.72,66.0
54.73,65.0
54.74,84.0
54.75,79.0
54.76,75.0
54.77,78.0
54.78,73.0
54.79,78.0
54.8,79.0
54.81,73.0
54.82,72.0
54.83,66.0
54.84,76.0
54.85,91.0
54.86,74.0
54.87,73.0
54.88,77.0
54.89,73.0
54.9,76.0
54.91,74.0
54.92,89.0
54.93,93.0
54.94,71.0
54.95,84.0
54.96,67.0
54.97,74.0
54.98,69.0
54.99,86.0
55.0,76.0
55.01,64.0
55.02,72.0
55.03,79.0
55.04,58.0
55.05,69.0
55.06,84.0
55.07,75.0
55.08,93.0
55.09,106.0
55.1,103.0
55.11,105.0
55.12,107.0
55.13,83.0
55.14,90.0
55.15,101.0
55.16,86.0
55.17,86.0
55.18,87.0
55.19,92.0
55.2,84.0
55.21,88.0
55.22,82.0
55.23,93.0
55.24,91.0
55.25,64.0
55.26,93.0
55.27,72.0
55.28,64.0
55.29,88.0
55.3,86.0
55.31,89.0
55.32,82.0
55.33,72.0
55.34,86.0
55.35,89.0
55.36,90.0
55.37,70.0
55.38,76.0
55.39,70.0
55.4,78.0
55.41,83.0
55.42,78.0
55.43,65.0
55.44,68.0
55.45,75.0
55.46,68.0
55.47,91.0
55.48,83.0
55.49,91.0
55.5,78.0
55.51,82.0
55.52,86.0
55.53,69.0
55.54,77.0
55.55,89.0
55.56,77.0
55.57,86.0
55.58,74.0
55.59,75.0
55.6,85.0
55.61,70.0
55.62,75.0
55.63,81.0
55.64,72.0
55.65,82.0
55.66,77.0
55.67,63.0
55.68,79.0
55.69,60.0
55.7,91.0
55.71,79.0
55.72,67.0
55.73,84.0
55.74,80.0
55.75,70.0
55.76,68.0
55.77,75.0
55.78,79.0
55.79,75.0
55.8,77.0
55.81,90.0
55.82,73.0
55.83,56.0
55.84,71.0
55.85,69.0
55.86,76.0
55.87,60.0
55.88,86.0
55.89,78.0
55.9,83.0
55.91,65.0
55.92,94.0
55.93,72.0
55.94,71.0
55.95,66.0
55.96,64.0
55.97,75.0
55.98,61.0
55.99,69.0
56.0,71.0
56.01,70.0
56.02,66.0
56.03,77.0
56.04,84.0
56.05,69.0
56.06,56.0
56.07,56.0
56.08,65.0
56.09,70.0
56.1,88.0
56.11,51.0
56.12,57.0
56.13,66.0
56.14,73.0
56.15,62.0
56.16,73.0
56.17,61.0
56.18,76.0
56.19,75.0
56.2,63.0
56.21,72.0
56.22,86.0
56.23,77.0
56.24,56.0
56.25,71.0
56.26,78.0
56.27,64.0
56.28,75.0
56.29,77.0
56.3,60.0
56.31,80.0
56.32,79.0
56.33,86.0
56.34,66.0
56.35,84.0
56.36,90.0
56.37,71.0
56.38,79.0
56.39,63.0
56.4,74.0
56.41,73.0
56.42,83.0
56.43,76.0
56.44,98.0
56.45,95.0
56.46,79.0
56.47,70.0
56.48,77.0
56.49,62.0
56.5,84.0
56.51,67.0
56.52,78.0
56.53,74.0
56.54,78.0
56.55,71.0
56.56,61.0
56.57,77.0
56.58,94.0
56.59,84.0
56.6,76.0
56.61,60.0
56.62,74.0
56.63,81.0
56.64,82.0
56.65,82.0
56.66,83.0
56.67,86.0
56.68,89.0
56.69,68.0
56.7,72.0
56.71,67.0
56.72,71.0
56.73,76.0
56.74,74.0
56.75,84.0
56.76,81.0
56.77,74.0
56.78,73.0
56.79,75.0
56.8,77.0
56.81,66.0
56.82,83.0
56.83,64.0
56.84,73.0
56.85,76.0
56.86,70.0
56.87,78.0
56.88,65.0
56.89,69.0
56.9,76.0
56.91,63.0
56.92,77.0
56.93,72.0
56.94,58.0
56.95,72.0
56.96,72.0
56.97,73.0
56.98,73.0
56.99,69.0
57.0,81.0
57.01,56.0
57.02,83.0
57.03,77.0
57.04,57.0
57.05,69.0
57.06,77.0
57.07,61.0
57.08,79.0
57.09,68.0
57.1,77.0
57.11,76.0
57.12,67.0
57.13,73.0
57.14,88.0
57.15,69.0
57.16,63.0
57.17,73.0
57.18,64.0
57.19,68.0
57.2,61.0
57.21,84.0
57.22,76.0
57.23,69.0
57.24,79.0
57.25,60.0
57.26,55.0
57.27,70.0
57.28,63.0
57.29,56.0
57.3,89.0
57.31,69.0
57.32,84.0
57.33,88.0
57.34,69.0
57.35,62.0
57.36,89.0
57.37,89.0
57.38,73.0
57.39,73.0
57.4,79.0
57.41,79.0
57.42,85.0
57.43,83.0
57.44,86.0
57.45,77.0
57.46,68.0
57.47,69.0
57.48,79.0
57.49,75.0
57.5,103.0
57.51,73.0
57.52,86.0
57.53,74.0
57.54,73.0
57.55,72.0
57.56,79.0
57.57,80.0
57.58,59.0
57.59,71.0
57.6,66.0
57.61,68.0
57.62,75.0
57.63,71.0
57.64,69.0
57.65,62.0
57.66,62.0
57.67,71.0
57.68,60.0
57.69,62.0
57.7,70.0
57.71,77.0
57.72,90.0
57.73,78.0
57.74,79.0
57.75,75.0
57.76,79.0
57.77,73.0
57.78,86.0
57.79,83.0
57.8,78.0
57.81,82.0
57.82,84.0
57.83,70.0
57.84,75.0
57.85,96.0
57.86,89.0
57.87,90.0
57.88,65.0
57.89,71.0
57.9,71.0
57.91,67.0
57.92,84.0
57.93,86.0
57.94,67.0
57.95,71.0
57.96,84.0
57.97,81.0
57.98,83.0
57.99,83.0
58.0,75.0
58.01,95.0
58.02,92.0
58.03,72.0
58.04,75.0
58.05,76.0
58.06,83.0
58.07,68.0
58.08,65.0
58.09,65.0
58.1,66.0
58.11,76.0
58.12,76.0
58.13,75.0
58.14,79.0
58.15,75.0
58.16,68.0
58.17,79.0
58.18,56.0
58.19,80.0
58.2,59.0
58.21,77.0
58.22,70.0
58.23,80.0
58.24,88.0
58.25,73.0
58.26,82.0
58.27,82.0
58.28,75.0
58.29,63.0
58.3,70.0
58.31,79.0
58.32,77.0
58.33,69.0
58.34,76.0
58.35,80.0
58.36,74.0
58.37,61.0
58.38,70.0
58.39,79.0
58.4,71.0
58.41,59.0
58.42,70.0
58.43,68.0
58.44,69.0
58.45,66.0
58.46,71.0
58.47,68.0
58.48,81.0
58.49,94.0
58.5,64.0
58.51,86.0
58.52,83.0
58.53,75.0
58.54,81.0
58.55,77.0
58.56,58.0
58.57,71.0
58.58,70.0
58.59,87.0
58.6,73.0
58.61,81.0
58.62,65.0
58.63,70.0
58.64,64.0
58.65,70.0
58.66,61.0
58.67,71.0
58.68,90.0
58.69,70.0
58.7,71.0
58.71,82.0
58.72,83.0
58.73,81.0
58.74,57.0
58.75,68.0
58.76,74.0
58.77,70.0
58.78,74.0
58.79,84.0
58.8,68.0
58.81,68.0
58.82,76.0
58.83,85.0
58.84,91.0
58.85,70.0
58.86,80.0
58.87,63.0
58.88,78.0
58.89,70.0
58.9,80.0
58.91,67.0
58.92,66.0
58.93,83.0
58.94,71.0
58.95,72.0
58.96,55.0
58.97,67.0
58.98,69.0
58.99,72.0
59.0,60.0
59.01,76.0
59.02,68.0
59.03,76.0
59.04,71.0
59.05,85.0
59.06,80.0
59.07,80.0
59.08,76.0
59.09,61.0
59.1,78.0
59.11,67.0
59.12,84.0
59.13,72.0
59.14,75.0
59.15,83.0
59.16,67.0
59.17,81.0
59.18,72.0
59.19,65.0
59.2,79.0
59.21,59.0
59.22,76.0
59.23,78.0
59.24,62.0
59.25,67.0
59.26,75.0
59.27,77.0
59.28,79.0
59.29,84.0
59.3,63.0
59.31,86.0
59.32,61.0
59.33,74.0
59.34,74.0
59.35,79.0
59.36,79.0
59.37,64.0
59.38,76.0
59.39,69.0
59.4,52.0
59.41,71.0
59.42,75.0
59.43,80.0
59.44,63.0
59.45,80.0
59.46,82.0
59.47,84.0
59.48,87.0
59.49,67.0
59.5,91.0
59.51,69.0
59.52,67.0
59.53,61.0
59.54,54.0
59.55,72.0
59.56,84.0
59.57,79.0
59.58,80.0
59.59,84.0
59.6,81.0
59.61,77.0
59.62,99.0
59.63,74.0
59.64,85.0
59.65,82.0
59.66,83.0
59.67,66.0
59.68,75.0
59.69,60.0
59.7,85.0
59.71,89.0
59.72,75.0
59.73,67.0
59.74,77.0
59.75,65.0
59.76,91.0
59.77,84.0
59.78,80.0
59.79,64.0
59.8,64.0
59.81,65.0
59.82,83.0
59.83,68.0
59.84,87.0
59.85,74.0
59.86,87.0
59.87,63.0
59.88,64.0
59.89,59.0
59.9,84.0
59.91,64.0
59.92,54.0
59.93,69.0
59.94,69.0
59.95,68.0
59.96,74.0
59.97,68.0
59.98,64.0
59.99,69.0
60.0,65.0
60.01,70.0
60.02,83.0
60.03,82.0
60.04,70.0
60.05,75.0
60.06,69.0
60.07,61.0
60.08,62.0
60.09,65.0
60.1,82.0
60.11,79.0
60.12,75.0
60.13,82.0
60.14,65.0
60.15,73.0
60.16,69.0
60.17,79.0
60.18,69.0
60.19,67.0
60.2,77.0
60.21,66.0
60.22,68.0
60.23,68.0
60.24,80.0
60.25,74.0
60.26,83.0
60.27,67.0
60.28,80.0
60.29,69.0
60.3,77.0
60.31,76.0
60.32,75.0
60.33,78.0
60.34,85.0
60.35,75.0
60.36,74.0
60.37,74.0
60.38,80.0
60.39,72.0
60.4,65.0
60.41,89.0
60.42,69.0
60.43,63.0
60.44,91.0
60.45,70.0
60.46,88.0
60.47,84.0
60.48,81.0
60.49,75.0
60.5,62.0
60.51,79.0
60.52,85.0
60.53,68.0
60.54,86.0
60.55,80.0
60.56,77.0
60.57,82.0
60.58,73.0
60.59,82.0
60.6,81.0
60.61,86.0
60.62,87.0
60.63,83.0
60.64,75.0
60.65,97.0
60.66,77.0
60.67,70.0
60.68,98.0
60.69,81.0
60.7,89.0
60.71,78.0
60.72,87.0
60.73,87.0
60.74,78.0
60.75,80.0
60.76,79.0
60.77,85.0
60.78,72.0
60.79,83.0
60.8,67.0
60.81,82.0
60.82,85.0
60.83,75.0
60.84,73.0
60.85,82.0
60.86,66.0
60.87,70.0
60.88,78.0
60.89,88.0
60.9,71.0
60.91,63.0
60.92,83.0
60.93,90.0
60.94,74.0
60.95,79.0
60.96,74.0
60.97,87.0
60.98,87.0
60.99,77.0
61.0,99.0
61.01,75.0
61.02,72.0
61.03,71.0
61.04,89.0
61.05,98.0
61.06,76.0
61.07,78.0
61.08,85.0
61.09,82.0
61.1,92.0
61.11,78.0
61.12,93.0
61.13,72.0
61.14,89.0
61.15,78.0
61.16,68.0
61.17,77.0
61.18,85.0
61.19,71.0
61.2,87.0
61.21,71.0
61.22,74.0
61.23,76.0
61.24,72.0
61.25,84.0
61.26,77.0
61.27,89.0
61.28,71.0
61.29,76.0
61.3,80.0
61.31,79.0
61.32,76.0
61.33,72.0
61.34,64.0
61.35,70.0
61.36,89.0
61.37,82.0
61.38,75.0
61.39,74.0
61.4,66.0
61.41,76.0
61.42,62.0
61.43,72.0
61.44,68.0
61.45,64.0
61.46,78.0
61.47,82.0
61.48,88.0
61.49,68.0
61.5,66.0
61.51,72.0
61.52,74.0
61.53,80.0
61.54,79.0
61.55,86.0
61.56,83.0
61.57,70.0
61.58,67.0
61.59,63.0
61.6,79.0
61.61,74.0
61.62,77.0
61.63,76.0
61.64,76.0
61.65,58.0
61.66,58.0
61.67,74.0
61.68,76.0
61.69,74.0
61.7,76.0
61.71,81.0
61.72,73.0
61.73,69.0
61.74,79.0
61.75,67.0
61.76,76.0
61.77,73.0
61.78,73.0
61.79,61.0
61.8,66.0
61.81,75.0
61.82,86.0
61.83,84.0
61.84,57.0
61.85,78.0
61.86,75.0
61.87,63.0
61.88,78.0
61.89,72.0
61.9,75.0
61.91,72.0
61.92,75.0
61.93,79.0
61.94,74.0
61.95,73.0
61.96,74.0
61.97,74.0
61.98,87.0
61.99,81.0
62.0,76.0
62.01,62.0
62.02,88.0
62.03,80.0
62.04,76.0
62.05,69.0
62.06,76.0
62.07,69.0
62.08,69.0
62.09,70.0
62.1,82.0
62.11,76.0
62.12,61.0
62.13,75.0
62.14,60.0
62.15,82.0
62.16,70.0
62.17,66.0
62.18,82.0
62.19,80.0
62.2,54.0
62.21,80.0
62.22,72.0
62.23,55.0
62.24,75.0
62.25,81.0
62.26,64.0
62.27,76.0
62.28,85.0
62.29,67.0
62.3,83.0
62.31,83.0
62.32,70.0
62.33,82.0
62.34,60.0
62.35,67.0
62.36,82.0
62.37,66.0
62.38,77.0
62.39,81.0
62.4,87.0
62.41,68.0
62.42,78.0
62.43,79.0
62.44,77.0
62.45,68.0
62.46,64.0
62.47,88.0
62.48,84.0
62.49,73.0
62.5,74.0
62.51,80.0
62.52,88.0
62.53,79.0
62.54,57.0
62.55,77.0
62.56,81.0
62.57,77.0
62.58,80.0
62.59,72.0
62.6,57.0
62.61,63.0
62.62,71.0
62.63,87.0
62.64,61.0
62.65,75.0
62.66,72.0
62.67,86.0
62.68,66.0
62.69,87.0
62.7,69.0
62.71,74.0
62.72,91.0
62.73,71.0
62.74,80.0
62.75,84.0
62.76,60.0
62.77,78.0
62.78,74.0
62.79,74.0
62.8,97.0
62.81,70.0
62.82,82.0
62.83,65.0
62.84,81.0
62.85,69.0
62.86,71.0
62.87,67.0
62.88,78.0
62.89,71.0
62.9,71.0
62.91,66.0
62.92,70.0
62.93,66.0
62.94,79.0
62.95,70.0
62.96,55.0
62.97,73.0
62.98,74.0
62.99,73.0
63.0,74.0
63.01,80.0
63.02,66.0
63.03,72.0
63.04,58.0
63.05,78.0
63.06,71.0
63.07,81.0
63.08,75.0
63.09,76.0
63.1,79.0
63.11,67.0
63.12,72.0
63.13,87.0
63.14,81.0
63.15,72.0
63.16,75.0
63.17,74.0
63.18,69.0
63.19,66.0
63.2,76.0
63.21,61.0
63.22,104.0
63.23,81.0
63.24,82.0
63.25,64.0
63.26,65.0
63.27,82.0
63.28,66.0
63.29,77.0
63.3,75.0
63.31,75.0
63.32,66.0
63.33,73.0
63.34,90.0
63.35,79.0
63.36,71.0
63.37,81.0
63.38,65.0
63.39,73.0
63.4,72.0
63.41,78.0
63.42,79.0
63.43,82.0
63.44,73.0
63.45,73.0
63.46,84.0
63.47,80.0
63.48,82.0
63.49,74.0
63.5,69.0
63.51,75.0
63.52,68.0
63.53,77.0
63.54,75.0
63.55,75.0
63.56,75.0
63.57,82.0
63.58,73.0
63.59,60.0
63.6,81.0
63.61,78.0
63.62,75.0
63.63,84.0
63.64,83.0
63.65,93.0
63.66,78.0
63.67,92.0
63.68,71.0
63.69,68.0
63.7,67.0
63.71,79.0
63.72,76.0
63.73,83.0
63.74,73.0
63.75,79.0
63.76,88.0
63.77,77.0
63.78,73.0
63.79,78.0
63.8,93.0
63.81,85.0
63.82,78.0
63.83,89.0
63.84,71.0
63.85,85.0
63.86,85.0
63.87,77.0
63.88,84.0
63.89,95.0
63.9,80.0
63.91,84.0
63.92,102.0
63.93,85.0
63.94,101.0
63.95,87.0
63.96,112.0
63.97,85.0
63.98,84.0
63.99,90.0
64.0,72.0
64.01,83.0
64.02,95.0
64.03,88.0
64.04,74.0
64.05,86.0
64.06,79.0
64.07,82.0
64.08,96.0
64.09,97.0
64.1,87.0
64.11,83.0
64.12,86.0
64.13,84.0
64.14,79.0
64.15,98.0
64.16,82.0
64.17,83.0
64.18,74.0
64.19,66.0
64.2,80.0
64.21,99.0
64.22,78.0
64.23,87.0
64.24,67.0
64.25,73.0
64.26,80.0
64.27,74.0
64.28,74.0
64.29,75.0
64.3,71.0
64.31,79.0
64.32,72.0
64.33,67.0
64.34,77.0
64.35,73.0
64.36,85.0
64.37,68.0
64.38,68.0
64.39,81.0
64.4,78.0
64.41,72.0
64.42,72.0
64.43,86.0
64.44,84.0
64.45,69.0
64.46,80.0
64.47,64.0
64.48,78.0
64.49,67.0
64.5,83.0
64.51,69.0
64.52,76.0
64.53,85.0
64.54,76.0
64.55,80.0
64.56,76.0
64.57,68.0
64.58,74.0
64.59,60.0
64.6,63.0
64.61,76.0
64.62,70.0
64.63,79.0
64.64,69.0
64.65,75.0
64.66,80.0
64.67,59.0
64.68,61.0
64.69,74.0
64.7,89.0
64.71,74.0
64.72,55.0
64.73,74.0
64.74,80.0
64.75,74.0
64.76,77.0
64.77,65.0
64.78,62.0
64.79,83.0
64.8,77.0
64.81,80.0
64.82,64.0
64.83,71.0
64.84,83.0
64.85,73.0
64.86,59.0
64.87,69.0
64.88,55.0
64.89,80.0
64.9,71.0
64.91,69.0
64.92,69.0
64.93,84.0
64.94,63.0
64.95,65.0
64.96,83.0
64.97,70.0
64.98,90.0
64.99,66.0
65.0,70.0
65.01,68.0
65.02,74.0
65.03,67.0
65.04,76.0
65.05,79.0
65.06,78.0
65.07,68.0
65.08,60.0
65.09,80.0
65.1,77.0
65.11,56.0
65.12,66.0
65.13,66.0
65.14,80.0
65.15,74.0
65.16,69.0
65.17,76.0
65.18,81.0
65.19,75.0
65.2,80.0
65.21,73.0
65.22,54.0
65.23,78.0
65.24,72.0
65.25,75.0
65.26,80.0
65.27,66.0
65.28,77.0
65.29,68.0
65.3,65.0
65.31,69.0
65.32,83.0
65.33,71.0
65.34,79.0
65.35,64.0
65.36,62.0
65.37,84.0
65.38,79.0
65.39,80.0
65.4,72.0
65.41,62.0
65.42,73.0
65.43,56.0
65.44,58.0
65.45,78.0
65.46,79.0
65.47,84.0
65.48,47.0
65.49,71.0
65.5,59.0
65.51,72.0
65.52,75.0
65.53,56.0
65.54,58.0
65.55,63.0
65.56,94.0
65.57,61.0
65.58,75.0
65.59,73.0
65.6,77.0
65.61,74.0
65.62,69.0
65.63,69.0
65.64,78.0
65.65,89.0
65.66,70.0
65.67,67.0
65.68,68.0
65.69,73.0
65.7,77.0
65.71,70.0
65.72,69.0
65.73,66.0
65.74,78.0
65.75,69.0
65.76,66.0
65.77,80.0
65.78,76.0
65.79,82.0
65.8,76.0
65.81,73.0
65.82,69.0
65.83,60.0
65.84,78.0
65.85,81.0
65.86,81.0
65.87,72.0
65.88,64.0
65.89,68.0
65.9,83.0
65.91,75.0
65.92,68.0
65.93,54.0
65.94,62.0
65.95,73.0
65.96,71.0
65.97,51.0
65.98,72.0
65.99,71.0
66.0,66.0
66.01,66.0
66.02,79.0
66.03,80.0
66.04,70.0
66.05,62.0
66.06,66.0
66.07,88.0
66.08,72.0
66.09,78.0
66.1,58.0
66.11,83.0
66.12,65.0
66.13,86.0
66.14,76.0
66.15,67.0
66.16,73.0
66.17,59.0
66.18,66.0
66.19,85.0
66.2,72.0
66.21,78.0
66.22,64.0
66.23,70.0
66.24,70.0
66.25,69.0
66.26,67.0
66.27,77.0
66.28,79.0
66.29,82.0
66.3,75.0
66.31,81.0
66.32,62.0
66.33,89.0
66.34,76.0
66.35,79.0
66.36,70.0
66.37,73.0
66.38,66.0
66.39,72.0
66.4,73.0
66.41,86.0
66.42,83.0
66.43,79.0
66.44,59.0
66.45,80.0
66.46,71.0
66.47,56.0
66.48,70.0
66.49,70.0
66.5,87.0
66.51,65.0
66.52,78.0
66.53,74.0
66.54,69.0
66.55,62.0
66.56,78.0
66.57,69.0
66.58,71.0
66.59,81.0
66.6,62.0
66.61,67.0
66.62,67.0
66.63,65.0
66.64,74.0
66.65,67.0
66.66,70.0
66.67,87.0
66.68,65.0
66.69,74.0
66.7,83.0
66.71,67.0
66.72,76.0
66.73,70.0
66.74,68.0
66.75,66.0
66.76,63.0
66.77,65.0
66.78,61.0
66.79,72.0
66.8,76.0
66.81,71.0
66.82,71.0
66.83,75.0
66.84,61.0
66.85,69.0
66.86,69.0
66.87,71.0
66.88,67.0
66.89,75.0
66.9,91.0
66.91,79.0
66.92,65.0
66.93,61.0
66.94,74.0
66.95,67.0
66.96,71.0
66.97,76.0
66.98,73.0
66.99,75.0
67.0,68.0
67.01,76.0
67.02,63.0
67.03,66.0
67.04,65.0
67.05,67.0
67.06,70.0
67.07,68.0
67.08,68.0
67.09,71.0
67.1,63.0
67.11,75.0
67.12,67.0
67.13,57.0
67.14,75.0
67.15,70.0
67.16,89.0
67.17,76.0
67.18,68.0
67.19,78.0
67.2,75.0
67.21,75.0
67.22,71.0
67.23,69.0
67.24,80.0
67.25,89.0
67.26,66.0
67.27,87.0
67.28,64.0
67.29,67.0
67.3,56.0
67.31,74.0
67.32,70.0
67.33,68.0
67.34,70.0
67.35,74.0
67.36,59.0
67.37,67.0
67.38,59.0
67.39,73.0
67.4,53.0
67.41,88.0
67.42,78.0
67.43,73.0
67.44,68.0
67.45,67.0
67.46,78.0
67.47,82.0
67.48,64.0
67.49,66.0
67.5,78.0
67.51,72.0
67.52,74.0
67.53,60.0
67.54,64.0
67.55,73.0
67.56,67.0
67.57,68.0
67.58,75.0
67.59,77.0
67.6,68.0
67.61,75.0
67.62,70.0
67.63,76.0
67.64,91.0
67.65,79.0
67.66,66.0
67.67,65.0
67.68,68.0
67.69,79.0
67.7,60.0
67.71,67.0
67.72,71.0
67.73,66.0
67.74,69.0
67.75,63.0
67.76,77.0
67.77,75.0
67.78,67.0
67.79,58.0
67.8,72.0
67.81,69.0
67.82,61.0
67.83,73.0
67.84,84.0
67.85,70.0
67.86,79.0
67.87,72.0
67.88,58.0
67.89,83.0
67.9,75.0
67.91,71.0
67.92,76.0
67.93,74.0
67.94,94.0
67.95,61.0
67.96,76.0
67.97,82.0
67.98,69.0
67.99,67.0
68.0,87.0
68.01,88.0
68.02,103.0
68.03,77.0
68.04,81.0
68.05,96.0
68.06,87.0
68.07,85.0
68.08,107.0
68.09,96.0
68.1,77.0
68.11,84.0
68.12,84.0
68.13,97.0
68.14,76.0
68.15,84.0
68.16,91.0
68.17,80.0
68.18,83.0
68.19,72.0
68.2,76.0
68.21,66.0
68.22,77.0
68.23,80.0
68.24,85.0
68.25,66.0
68.26,86.0
68.27,96.0
68.28,65.0
68.29,66.0
68.3,77.0
68.31,91.0
68.32,86.0
68.33,73.0
68.34,66.0
68.35,76.0
68.36,83.0
68.37,82.0
68.38,60.0
68.39,74.0
68.4,75.0
68.41,77.0
68.42,79.0
68.43,70.0
68.44,64.0
68.45,71.0
68.46,65.0
68.47,76.0
68.48,67.0
68.49,74.0
68.5,79.0
68.51,63.0
68.52,82.0
68.53,84.0
68.54,65.0
68.55,74.0
68.56,82.0
68.57,64.0
68.58,71.0
68.59,80.0
68.6,79.0
68.61,76.0
68.62,73.0
68.63,69.0
68.64,65.0
68.65,85.0
68.66,72.0
68.67,67.0
68.68,82.0
68.69,82.0
68.7,70.0
68.71,87.0
68.72,74.0
68.73,77.0
68.74,70.0
68.75,68.0
68.76,87.0
68.77,53.0
68.78,51.0
68.79,64.0
68.8,75.0
68.81,70.0
68.82,66.0
68.83,84.0
68.84,76.0
68.85,72.0
68.86,73.0
68.87,63.0
68.88,54.0
68.89,71.0
68.9,74.0
68.91,52.0
68.92,79.0
68.93,80.0
68.94,66.0
68.95,70.0
68.96,64.0
68.97,68.0
68.98,75.0
68.99,69.0
69.0,59.0
69.01,65.0
69.02,85.0
69.03,77.0
69.04,72.0
69.05,61.0
69.06,92.0
69.07,93.0
69.08,83.0
69.09,70.0
69.1,70.0
69.11,74.0
69.12,93.0
69.13,78.0
69.14,67.0
69.15,76.0
69.16,63.0
69.17,81.0
69.18,76.0
69.19,74.0
69.2,65.0
69.21,70.0
69.22,57.0
69.23,69.0
69.24,73.0
69.25,67.0
69.26,74.0
69.27,70.0
69.28,69.0
69.29,69.0
69.3,70.0
69.31,64.0
69.32,77.0
69.33,74.0
69.34,72.0
69.35,80.0
69.36,77.0
69.37,77.0
69.38,83.0
69.39,70.0
69.4,82.0
69.41,95.0
69.42,88.0
69.43,75.0
69.44,80.0
69.45,80.0
69.46,82.0
69.47,94.0
69.48,72.0
69.49,58.0
69.5,76.0
69.51,75.0
69.52,91.0
69.53,91.0
69.54,62.0
69.55,85.0
69.56,76.0
69.57,84.0
69.58,70.0
69.59,77.0
69.6,87.0
69.61,79.0
69.62,74.0
69.63,69.0
69.64,81.0
69.65,61.0
69.66,81.0
69.67,64.0
69.68,70.0
69.69,87.0
69.7,77.0
69.71,84.0
69.72,81.0
69.73,75.0
69.74,80.0
69.75,60.0
69.76,75.0
69.77,77.0
69.78,80.0
69.79,74.0
69.8,79.0
69.81,83.0
69.82,76.0
69.83,76.0
69.84,71.0
69.85,65.0
69.86,73.0
69.87,75.0
69.88,83.0
69.89,92.0
69.9,86.0
69.91,62.0
69.92,89.0
69.93,68.0
69.94,64.0
69.95,79.0
69.96,73.0
69.97,61.0
69.98,81.0
69.99,81.0
70.0,78.0
70.01,87.0
70.02,82.0
70.03,71.0
70.04,66.0
70.05,79.0
70.06,78.0
70.07,79.0
70.08,72.0
70.09,71.0
70.1,66.0
70.11,80.0
70.12,77.0
70.13,84.0
70.14,58.0
70.15,73.0
70.16,79.0
70.17,77.0
70.18,79.0
70.19,75.0
70.2,80.0
70.21,63.0
70.22,88.0
70.23,71.0
70.24,85.0
70.25,68.0
70.26,85.0
70.27,64.0
70.28,79.0
70.29,69.0
70.3,91.0
70.31,72.0
70.32,74.0
70.33,79.0
70.34,86.0
70.35,59.0
70.36,74.0
70.37,84.0
70.38,90.0
70.39,73.0
70.4,96.0
70.41,71.0
70.42,71.0
70.43,69.0
70.44,82.0
70.45,70.0
70.46,73.0
70.47,82.0
70.48,70.0
70.49,81.0
70.5,63.0
70.51,73.0
70.52,78.0
70.53,71.0
70.54,83.0
70.55,75.0
70.56,74.0
70.57,69.0
70.58,64.0
70.59,68.0
70.6,75.0
70.61,69.0
70.62,73.0
70.63,89.0
70.64,88.0
70.65,77.0
70.66,59.0
70.67,78.0
70.68,82.0
70.69,80.0
70.7,85.0
70.71,81.0
70.72,61.0
70.73,65.0
70.74,75.0
70.75,75.0
70.76,54.0
70.77,79.0
70.78,71.0
70.79,90.0
70.8,68.0
70.81,83.0
70.82,74.0
70.83,74.0
70.84,75.0
70.85,65.0
70.86,72.0
70.87,72.0
70.88,71.0
70.89,70.0
70.9,80.0
70.91,64.0
70.92,73.0
70.93,82.0
70.94,68.0
70.95,65.0
70.96,88.0
70.97,77.0
70.98,68.0
70.99,86.0
71.0,60.0
71.01,87.0
71.02,104.0
71.03,79.0
71.04,97.0
71.05,86.0
71.06,88.0
71.07,72.0
71.08,73.0
71.09,86.0
71.1,77.0
71.11,61.0
71.12,83.0
71.13,74.0
71.14,66.0
71.15,63.0
71.16,71.0
71.17,73.0
71.18,64.0
71.19,84.0
71.2,88.0
71.21,69.0
71.22,85.0
71.23,80.0
71.24,77.0
71.25,69.0
71.26,77.0
71.27,75.0
71.28,86.0
71.29,71.0
71.3,60.0
71.31,69.0
71.32,60.0
71.33,81.0
71.34,69.0
71.35,83.0
71.36,55.0
71.37,65.0
71.38,66.0
71.39,58.0
71.4,66.0
71.41,80.0
71.42,61.0
71.43,71.0
71.44,63.0
71.45,79.0
71.46,66.0
71.47,81.0
71.48,81.0
71.49,66.0
71.5,78.0
71.51,76.0
71.52,64.0
71.53,67.0
71.54,69.0
71.55,77.0
71.56,70.0
71.57,85.0
71.58,72.0
71.59,73.0
71.6,75.0
71.61,71.0
71.62,75.0
71.63,78.0
71.64,66.0
71.65,68.0
71.66,94.0
71.67,56.0
71.68,69.0
71.69,69.0
71.7,77.0
71.71,51.0
71.72,72.0
71.73,63.0
71.74,65.0
71.75,77.0
71.76,71.0
71.77,65.0
71.78,64.0
71.79,75.0
71.8,63.0
71.81,83.0
71.82,76.0
71.83,83.0
71.84,87.0
71.85,74.0
71.86,76.0
71.87,54.0
71.88,88.0
71.89,77.0
71.9,71.0
71.91,73.0
71.92,84.0
71.93,73.0
71.94,74.0
71.95,79.0
71.96,66.0
71.97,75.0
71.98,65.0
71.99,84.0
72.0,73.0
72.01,81.0
72.02,52.0
72.03,75.0
72.04,75.0
72.05,77.0
72.06,67.0
72.07,78.0
72.08,78.0
72.09,71.0
72.1,61.0
72.11,66.0
72.12,71.0
72.13,77.0
72.14,80.0
72.15,85.0
72.16,85.0
72.17,59.0
72.18,69.0
72.19,67.0
72.2,81.0
72.21,73.0
72.22,85.0
72.23,74.0
72.24,78.0
72.25,79.0
72.26,97.0
72.27,82.0
72.28,91.0
72.29,95.0
72.3,94.0
72.31,89.0
72.32,98.0
72.33,70.0
72.34,75.0
72.35,69.0
72.36,72.0
72.37,82.0
72.38,71.0
72.39,76.0
72.4,75.0
72.41,77.0
72.42,90.0
72.43,78.0
72.44,58.0
72.45,70.0
72.46,71.0
72.47,77.0
72.48,78.0
72.49,81.0
72.5,76.0
72.51,70.0
72.52,82.0
72.53,84.0
72.54,72.0
72.55,65.0
72.56,72.0
72.57,82.0
72.58,68.0
72.59,70.0
72.6,69.0
72.61,72.0
72.62,66.0
72.63,72.0
72.64,62.0
72.65,75.0
72.66,74.0
72.67,81.0
72.68,70.0
72.69,56.0
72.7,100.0
72.71,80.0
72.72,72.0
72.73,76.0
72.74,83.0
72.75,60.0
72.76,71.0
72.77,70.0
72.78,70.0
72.79,71.0
72.8,68.0
72.81,72.0
72.82,82.0
72.83,75.0
72.84,71.0
72.85,79.0
72.86,53.0
72.87,73.0
72.88,69.0
72.89,77.0
72.9,70.0
72.91,62.0
72.92,66.0
72.93,77.0
72.94,83.0
72.95,48.0
72.96,69.0
72.97,80.0
72.98,61.0
72.99,71.0
73.0,95.0
73.01,70.0
73.02,75.0
73.03,81.0
73.04,79.0
73.05,66.0
73.06,86.0
73.07,65.0
73.08,72.0
73.09,72.0
73.1,67.0
73.11,62.0
73.12,67.0
73.13,68.0
73.14,65.0
73.15,59.0
73.16,90.0
73.17,72.0
73.18,91.0
73.19,75.0
73.2,65.0
73.21,76.0
73.22,67.0
73.23,70.0
73.24,79.0
73.25,74.0
73.26,70.0
73.27,62.0
73.28,67.0
73.29,73.0
73.3,69.0
73.31,70.0
73.32,86.0
73.33,83.0
73.34,83.0
73.35,75.0
73.36,61.0
73.37,82.0
73.38,60.0
73.39,64.0
73.4,46.0
73.41,87.0
73.42,66.0
73.43,81.0
73.44,76.0
73.45,65.0
73.46,83.0
73.47,75.0
73.48,67.0
73.49,57.0
73.5,74.0
73.51,86.0
73.52,55.0
73.53,90.0
73.54,85.0
73.55,87.0
73.56,60.0
73.57,73.0
73.58,59.0
73.59,64.0
73.6,85.0
73.61,75.0
73.62,82.0
73.63,70.0
73.64,85.0
73.65,78.0
73.66,79.0
73.67,64.0
73.68,76.0
73.69,82.0
73.7,69.0
73.71,98.0
73.72,72.0
73.73,81.0
73.74,68.0
73.75,76.0
73.76,76.0
73.77,71.0
73.78,74.0
73.79,78.0
73.8,72.0
73.81,77.0
73.82,86.0
73.83,73.0
73.84,68.0
73.85,62.0
73.86,77.0
73.87,66.0
73.88,62.0
73.89,83.0
73.9,78.0
73.91,72.0
73.92,81.0
73.93,75.0
73.94,81.0
73.95,68.0
73.96,61.0
73.97,55.0
73.98,77.0
73.99,67.0
74.0,77.0
74.01,74.0
74.02,67.0
74.03,62.0
74.04,79.0
74.05,94.0
74.06,75.0
74.07,66.0
74.08,59.0
74.09,77.0
74.1,68.0
74.11,56.0
74.12,66.0
74.13,77.0
74.14,75.0
74.15,64.0
74.16,84.0
74.17,79.0
74.18,96.0
74.19,85.0
74.2,66.0
74.21,75.0
74.22,56.0
74.23,75.0
74.24,65.0
74.25,70.0
74.26,58.0
74.27,58.0
74.28,83.0
74.29,72.0
74.3,87.0
74.31,76.0
74.32,66.0
74.33,78.0
74.34,70.0
74.35,87.0
74.36,62.0
74.37,55.0
74.38,64.0
74.39,58.0
74.4,50.0
74.41,76.0
74.42,72.0
74.43,64.0
74.44,68.0
74.45,67.0
74.46,50.0
74.47,82.0
74.48,72.0
74.49,59.0
74.5,82.0
74.51,86.0
74.52,68.0
74.53,60.0
74.54,71.0
74.55,76.0
74.56,68.0
74.57,76.0
74.58,69.0
74.59,79.0
74.6,65.0
74.61,65.0
74.62,61.0
74.63,70.0
74.64,70.0
74.65,71.0
74.66,68.0
74.67,65.0
74.68,69.0
74.69,60.0
74.7,69.0
74.71,67.0
74.72,62.0
74.73,80.0
74.74,63.0
74.75,69.0
74.76,57.0
74.77,64.0
74.78,71.0
74.79,52.0
74.8,77.0
74.81,81.0
74.82,66.0
74.83,67.0
74.84,58.0
74.85,77.0
74.86,72.0
74.87,82.0
74.88,61.0
74.89,80.0
74.9,64.0
74.91,83.0
74.92,68.0
74.93,83.0
74.94,82.0
74.95,75.0
74.96,74.0
74.97,67.0
74.98,61.0
74.99,60.0
75.0,81.0
75.01,70.0
75.02,69.0
75.03,65.0
75.04,68.0
75.05,99.0
75.06,71.0
75.07,67.0
75.08,63.0
75.09,73.0
75.1,79.0
75.11,67.0
75.12,75.0
75.13,81.0
75.14,60.0
75.15,76.0
75.16,61.0
75.17,74.0
75.18,59.0
75.19,84.0
75.2,69.0
75.21,77.0
75.22,70.0
75.23,75.0
75.24,87.0
75.25,63.0
75.26,60.0
75.27,69.0
75.28,72.0
75.29,75.0
75.3,84.0
75.31,64.0
75.32,77.0
75.33,73.0
75.34,84.0
75.35,65.0
75.36,67.0
75.37,62.0
75.38,63.0
75.39,74.0
75.4,81.0
75.41,74.0
75.42,67.0
75.43,69.0
75.44,67.0
75.45,78.0
75.46,61.0
75.47,78.0
75.48,70.0
75.49,52.0
75.5,72.0
75.51,60.0
75.52,62.0
75.53,65.0
75.54,84.0
75.55,84.0
75.56,65.0
75.57,74.0
75.58,79.0
75.59,61.0
75.6,88.0
75.61,77.0
75.62,67.0
75.63,59.0
75.64,80.0
75.65,72.0
75.66,80.0
75.67,64.0
75.68,86.0
75.69,74.0
75.7,63.0
75.71,73.0
75.72,75.0
75.73,73.0
75.74,77.0
75.75,65.0
75.76,62.0
75.77,72.0
75.78,66.0
75.79,71.0
75.8,69.0
75.81,78.0
75.82,67.0
75.83,82.0
75.84,64.0
75.85,66.0
75.86,63.0
75.87,69.0
75.88,62.0
75.89,78.0
75.9,64.0
75.91,77.0
75.92,72.0
75.93,86.0
75.94,77.0
75.95,79.0
75.96,73.0
75.97,64.0
75.98,72.0
75.99,55.0
76.0,75.0
76.01,71.0
76.02,70.0
76.03,78.0
76.04,75.0
76.05,73.0
76.06,76.0
76.07,77.0
76.08,81.0
76.09,67.0
76.1,77.0
76.11,75.0
76.12,71.0
76.13,71.0
76.14,71.0
76.15,67.0
76.16,66.0
76.17,72.0
76.18,75.0
76.19,74.0
76.2,74.0
76.21,90.0
76.22,60.0
76.23,71.0
76.24,86.0
76.25,78.0
76.26,76.0
76.27,95.0
76.28,63.0
76.29,72.0
76.3,69.0
76.31,72.0
76.32,71.0
76.33,78.0
76.34,72.0
76.35,95.0
76.36,67.0
76.37,79.0
76.38,70.0
76.39,77.0
76.4,70.0
76.41,85.0
76.42,65.0
76.43,82.0
76.44,70.0
76.45,80.0
76.46,60.0
76.47,81.0
76.48,69.0
76.49,92.0
76.5,61.0
76.51,84.0
76.52,82.0
76.53,85.0
76.54,79.0
76.55,78.0
76.56,69.0
76.57,62.0
76.58,50.0
76.59,70.0
76.6,64.0
76.61,73.0
76.62,56.0
76.63,79.0
76.64,79.0
76.65,51.0
76.66,73.0
76.67,68.0
76.68,60.0
76.69,66.0
76.7,62.0
76.71,76.0
76.72,77.0
76.73,59.0
76.74,68.0
76.75,72.0
76.76,63.0
76.77,76.0
76.78,71.0
76.79,73.0
76.8,69.0
76.81,91.0
76.82,85.0
76.83,68.0
76.84,87.0
76.85,64.0
76.86,74.0
76.87,74.0
76.88,64.0
76.89,77.0
76.9,75.0
76.91,70.0
76.92,62.0
76.93,80.0
76.94,84.0
76.95,76.0
76.96,74.0
76.97,69.0
76.98,68.0
76.99,67.0
77.0,87.0
77.01,90.0
77.02,67.0
77.03,74.0
77.04,89.0
77.05,76.0
77.06,61.0
77.07,69.0
77.08,83.0
77.09,80.0
77.1,83.0
77.11,73.0
77.12,58.0
77.13,72.0
77.14,89.0
77.15,59.0
77.16,80.0
77.17,79.0
77.18,61.0
77.19,72.0
77.2,70.0
77.21,62.0
77.22,50.0
77.23,65.0
77.24,78.0
77.25,81.0
77.26,87.0
77.27,73.0
77.28,72.0
77.29,76.0
77.3,80.0
77.31,75.0
77.32,65.0
77.33,77.0
77.34,69.0
77.35,66.0
77.36,90.0
77.37,70.0
77.38,73.0
77.39,70.0
77.4,60.0
77.41,82.0
77.42,68.0
77.43,76.0
77.44,87.0
77.45,71.0
77.46,80.0
77.47,85.0
77.48,67.0
77.49,60.0
77.5,69.0
77.51,88.0
77.52,83.0
77.53,68.0
77.54,63.0
77.55,73.0
77.56,81.0
77.57,56.0
77.58,76.0
77.59,80.0
77.6,71.0
77.61,64.0
77.62,72.0
77.63,60.0
77.64,66.0
77.65,61.0
77.66,72.0
77.67,72.0
77.68,65.0
77.69,70.0
77.7,74.0
77.71,70.0
77.72,91.0
77.73,75.0
77.74,67.0
77.75,65.0
77.76,69.0
77.77,84.0
77.78,68.0
77.79,84.0
77.8,91.0
77.81,66.0
77.82,66.0
77.83,65.0
77.84,59.0
77.85,86.0
77.86,75.0
77.87,57.0
77.88,79.0
77.89,64.0
77.9,82.0
77.91,59.0
77.92,67.0
77.93,70.0
77.94,64.0
77.95,81.0
77.96,67.0
77.97,74.0
77.98,73.0
77.99,68.0
78.0,63.0
78.01,84.0
78.02,74.0
78.03,76.0
78.04,57.0
78.05,67.0
78.06,79.0
78.07,71.0
78.08,80.0
78.09,76.0
78.1,81.0
78.11,86.0
78.12,60.0
78.13,72.0
78.14,70.0
78.15,78.0
78.16,82.0
78.17,74.0
78.18,80.0
78.19,84.0
78.2,69.0
78.21,72.0
78.22,83.0
78.23,73.0
78.24,79.0
78.25,78.0
78.26,73.0
78.27,64.0
78.28,77.0
78.29,68.0
78.3,60.0
78.31,57.0
78.32,76.0
78.33,69.0
78.34,70.0
78.35,63.0
78.36,78.0
78.37,71.0
78.38,67.0
78.39,60.0
78.4,75.0
78.41,76.0
78.42,65.0
78.43,60.0
78.44,76.0
78.45,90.0
78.46,83.0
78.47,77.0
78.48,65.0
78.49,61.0
78.5,68.0
78.51,78.0
78.52,80.0
78.53,81.0
78.54,74.0
78.55,63.0
78.56,72.0
78.57,75.0
78.58,81.0
78.59,63.0
78.6,89.0
78.61,68.0
78.62,69.0
78.63,71.0
78.64,58.0
78.65,62.0
78.66,80.0
78.67,54.0
78.68,60.0
78.69,72.0
78.7,56.0
78.71,73.0
78.72,70.0
78.73,70.0
78.74,65.0
78.75,74.0
78.76,54.0
78.77,64.0
78.78,77.0
78.79,74.0
78.8,61.0
78.81,65.0
78.82,79.0
78.83,81.0
78.84,65.0
78.85,64.0
78.86,74.0
78.87,64.0
78.88,69.0
78.89,71.0
78.9,69.0
78.91,74.0
78.92,73.0
78.93,72.0
78.94,70.0
78.95,79.0
78.96,79.0
78.97,63.0
78.98,69.0
78.99,77.0
79.0,72.0
79.01,75.0
79.02,75.0
79.03,79.0
79.04,68.0
79.05,60.0
79.06,72.0
79.07,76.0
79.08,80.0
79.09,72.0
79.1,73.0
79.11,73.0
79.12,85.0
79.13,69.0
79.14,84.0
79.15,74.0
79.16,83.0
79.17,75.0
79.18,63.0
79.19,66.0
79.2,57.0
79.21,63.0
79.22,62.0
79.23,59.0
79.24,74.0
79.25,57.0
79.26,80.0
79.27,59.0
79.28,66.0
79.29,72.0
79.3,75.0
79.31,68.0
79.32,59.0
79.33,74.0
79.34,70.0
79.35,73.0
79.36,69.0
79.37,59.0
79.38,77.0
79.39,76.0
79.4,70.0
79.41,74.0
79.42,88.0
79.43,77.0
79.44,80.0
79.45,79.0
79.46,75.0
79.47,75.0
79.48,62.0
79.49,65.0
79.5,72.0
79.51,71.0
79.52,79.0
79.53,65.0
79.54,71.0
79.55,59.0
79.56,84.0
79.57,77.0
79.58,56.0
79.59,79.0
79.6,91.0
79.61,87.0
79.62,84.0
79.63,70.0
79.64,76.0
79.65,60.0
79.66,63.0
79.67,75.0
79.68,69.0
79.69,78.0
79.7,73.0
79.71,90.0
79.72,64.0
79.73,95.0
79.74,71.0
79.75,73.0
79.76,67.0
79.77,74.0
79.78,69.0
79.79,80.0
79.8,62.0
79.81,66.0
79.82,67.0
79.83,76.0
79.84,46.0
79.85,76.0
79.86,84.0
79.87,78.0
79.88,62.0
79.89,59.0
79.9,73.0
79.91,68.0
79.92,72.0
79.93,69.0
79.94,70.0
79.95,71.0
79.96,63.0
79.97,91.0
79.98,80.0
79.99,82.0
80.0,93.0
80.01,70.0
80.02,75.0
80.03,67.0
80.04,70.0
80.05,64.0
80.06,73.0
80.07,70.0
80.08,70.0
80.09,82.0
80.1,63.0
80.11,86.0
80.12,78.0
80.13,74.0
80.14,65.0
80.15,86.0
80.16,64.0
80.17,67.0
80.18,83.0
80.19,69.0
80.2,71.0
80.21,77.0
80.22,75.0
80.23,84.0
80.24,74.0
80.25,66.0
80.26,75.0
80.27,67.0
80.28,76.0
80.29,69.0
80.3,71.0
80.31,77.0
80.32,62.0
80.33,69.0
80.34,54.0
80.35,67.0
80.36,62.0
80.37,62.0
80.38,72.0
80.39,62.0
80.4,66.0
80.41,61.0
80.42,71.0
80.43,67.0
80.44,85.0
80.45,81.0
80.46,65.0
80.47,61.0
80.48,78.0
80.49,66.0
80.5,72.0
80.51,64.0
80.52,73.0
80.53,74.0
80.54,77.0
80.55,70.0
80.56,87.0
80.57,70.0
80.58,62.0
80.59,62.0
80.6,74.0
80.61,66.0
80.62,77.0
80.63,70.0
80.64,81.0
80.65,68.0
80.66,77.0
80.67,59.0
80.68,72.0
80.69,67.0
80.7,56.0
80.71,54.0
80.72,68.0
80.73,73.0
80.74,74.0
80.75,71.0
80.76,63.0
80.77,57.0
80.78,84.0
80.79,75.0
80.8,64.0
80.81,70.0
80.82,74.0
80.83,84.0
80.84,84.0
80.85,61.0
80.86,70.0
80.87,69.0
80.88,78.0
80.89,68.0
80.9,69.0
80.91,75.0
80.92,74.0
80.93,69.0
80.94,83.0
80.95,68.0
80.96,58.0
80.97,77.0
80.98,70.0
80.99,82.0
81.0,80.0
81.01,68.0
81.02,69.0
81.03,63.0
81.04,76.0
81.05,70.0
81.06,75.0
81.07,74.0
81.08,65.0
81.09,88.0
81.1,70.0
81.11,79.0
81.12,77.0
81.13,75.0
81.14,75.0
81.15,81.0
81.16,62.0
81.17,68.0
81.18,77.0
81.19,78.0
81.2,62.0
81.21,67.0
81.22,63.0
81.23,80.0
81.24,63.0
81.25,67.0
81.26,70.0
81.27,67.0
81.28,69.0
81.29,83.0
81.3,89.0
81.31,64.0
81.32,83.0
81.33,74.0
81.34,67.0
81.35,67.0
81.36,59.0
81.37,73.0
81.38,73.0
81.39,70.0
81.4,85.0
81.41,67.0
81.42,59.0
81.43,71.0
81.44,85.0
81.45,93.0
81.46,66.0
81.47,66.0
81.48,72.0
81.49,77.0
81.5,63.0
81.51,61.0
81.52,67.0
81.53,65.0
81.54,64.0
81.55,65.0
81.56,66.0
81.57,82.0
81.58,90.0
81.59,78.0
81.6,74.0
81.61,69.0
81.62,73.0
81.63,65.0
81.64,97.0
81.65,76.0
81.66,63.0
81.67,73.0
81.68,58.0
81.69,75.0
81.7,81.0
81.71,66.0
81.72,64.0
81.73,62.0
81.74,75.0
81.75,75.0
81.76,65.0
81.77,92.0
81.78,50.0
81.79,79.0
81.8,62.0
81.81,79.0
81.82,77.0
81.83,73.0
81.84,66.0
81.85,70.0
81.86,58.0
81.87,50.0
81.88,70.0
81.89,65.0
81.9,76.0
81.91,66.0
81.92,80.0
81.93,73.0
81.94,73.0
81.95,74.0
81.96,75.0
81.97,84.0
81.98,74.0
81.99,66.0
82.0,86.0
82.01,70.0
82.02,63.0
82.03,60.0
82.04,79.0
82.05,80.0
82.06,50.0
82.07,87.0
82.08,73.0
82.09,74.0
82.1,77.0
82.11,69.0
82.12,77.0
82.13,78.0
82.14,71.0
82.15,83.0
82.16,73.0
82.17,81.0
82.18,70.0
82.19,71.0
82.2,76.0
82.21,75.0
82.22,69.0
82.23,61.0
82.24,57.0
82.25,74.0
82.26,85.0
82.27,72.0
82.28,84.0
82.29,86.0
82.3,66.0
82.31,74.0
82.32,75.0
82.33,84.0
82.34,61.0
82.35,77.0
82.36,68.0
82.37,67.0
82.38,80.0
82.39,65.0
82.4,72.0
82.41,80.0
82.42,64.0
82.43,94.0
82.44,62.0
82.45,62.0
82.46,77.0
82.47,73.0
82.48,70.0
82.49,64.0
82.5,70.0
82.51,81.0
82.52,76.0
82.53,76.0
82.54,71.0
82.55,79.0
82.56,73.0
82.57,67.0
82.58,64.0
82.59,86.0
82.6,72.0
82.61,82.0
82.62,73.0
82.63,77.0
82.64,66.0
82.65,58.0
82.66,68.0
82.67,71.0
82.68,80.0
82.69,74.0
82.7,82.0
82.71,78.0
82.72,78.0
82.73,88.0
82.74,70.0
82.75,76.0
82.76,80.0
82.77,68.0
82.78,72.0
82.79,73.0
82.8,67.0
82.81,73.0
82.82,64.0
82.83,80.0
82.84,104.0
82.85,61.0
82.86,83.0
82.87,75.0
82.88,87.0
82.89,70.0
82.9,67.0
82.91,72.0
82.92,78.0
82.93,78.0
82.94,77.0
82.95,67.0
82.96,59.0
82.97,77.0
82.98,54.0
82.99,77.0
83.0,77.0
83.01,63.0
83.02,63.0
83.03,72.0
83.04,88.0
83.05,66.0
83.06,81.0
83.07,73.0
83.08,72.0
83.09,73.0
83.1,84.0
83.11,82.0
83.12,62.0
83.13,78.0
83.14,71.0
83.15,70.0
83.16,77.0
83.17,60.0
83.18,75.0
83.19,68.0
83.2,67.0
83.21,73.0
83.22,70.0
83.23,64.0
83.24,58.0
83.25,70.0
83.26,74.0
83.27,79.0
83.28,79.0
83.29,64.0
83.3,54.0
83.31,78.0
83.32,64.0
83.33,75.0
83.34,83.0
83.35,67.0
83.36,73.0
83.37,53.0
83.38,66.0
83.39,60.0
83.4,73.0
83.41,65.0
83.42,71.0
83.43,75.0
83.44,68.0
83.45,59.0
83.46,58.0
83.47,70.0
83.48,53.0
83.49,61.0
83.5,81.0
83.51,77.0
83.52,64.0
83.53,61.0
83.54,76.0
83.55,73.0
83.56,78.0
83.57,68.0
83.58,69.0
83.59,70.0
83.6,75.0
83.61,70.0
83.62,74.0
83.63,67.0
83.64,73.0
83.65,59.0
83.66,69.0
83.67,71.0
83.68,69.0
83.69,66.0
83.7,85.0
83.71,74.0
83.72,65.0
83.73,69.0
83.74,66.0
83.75,73.0
83.76,81.0
83.77,81.0
83.78,69.0
83.79,72.0
83.8,83.0
83.81,79.0
83.82,74.0
83.83,82.0
83.84,73.0
83.85,62.0
83.86,74.0
83.87,69.0
83.88,67.0
83.89,80.0
83.9,70.0
83.91,82.0
83.92,73.0
83.93,76.0
83.94,70.0
83.95,70.0
83.96,62.0
83.97,78.0
83.98,61.0
83.99,85.0
84.0,86.0
84.01,73.0
84.02,70.0
84.03,96.0
84.04,70.0
84.05,60.0
84.06,72.0
84.07,89.0
84.08,80.0
84.09,49.0
84.1,81.0
84.11,87.0
84.12,69.0
84.13,73.0
84.14,63.0
84.15,73.0
84.16,73.0
84.17,68.0
84.18,67.0
84.19,60.0
84.2,83.0
84.21,67.0
84.22,75.0
84.23,73.0
84.24,80.0
84.25,97.0
84.26,63.0
84.27,70.0
84.28,60.0
84.29,82.0
84.3,67.0
84.31,81.0
84.32,70.0
84.33,66.0
84.34,63.0
84.35,66.0
84.36,77.0
84.37,77.0
84.38,71.0
84.39,65.0
84.4,75.0
84.41,82.0
84.42,68.0
84.43,65.0
84.44,62.0
84.45,70.0
84.46,60.0
84.47,66.0
84.48,72.0
84.49,72.0
84.5,82.0
84.51,75.0
84.52,73.0
84.53,72.0
84.54,68.0
84.55,68.0
84.56,79.0
84.57,75.0
84.58,65.0
84.59,76.0
84.6,68.0
84.61,77.0
84.62,62.0
84.63,62.0
84.64,74.0
84.65,81.0
84.66,92.0
84.67,60.0
84.68,66.0
84.69,78.0
84.7,62.0
84.71,65.0
84.72,80.0
84.73,69.0
84.74,76.0
84.75,63.0
84.76,80.0
84.77,73.0
84.78,76.0
84.79,71.0
84.8,53.0
84.81,87.0
84.82,70.0
84.83,56.0
84.84,63.0
84.85,78.0
84.86,70.0
84.87,59.0
84.88,71.0
84.89,86.0
84.9,56.0
84.91,74.0
84.92,70.0
84.93,68.0
84.94,58.0
84.95,56.0
84.96,73.0
84.97,72.0
84.98,72.0
84.99,77.0
85.0,82.0
85.01,81.0
85.02,68.0
85.03,69.0
85.04,74.0
85.05,76.0
85.06,75.0
85.07,71.0
85.08,77.0
85.09,65.0
85.1,84.0
85.11,75.0
85.12,61.0
85.13,71.0
85.14,79.0
85.15,71.0
85.16,74.0
85.17,76.0
85.18,86.0
85.19,67.0
85.2,75.0
85.21,82.0
85.22,81.0
85.23,72.0
85.24,84.0
85.25,71.0
85.26,70.0
85.27,62.0
85.28,69.0
85.29,59.0
85.3,70.0
85.31,87.0
85.32,71.0
85.33,73.0
85.34,67.0
85.35,61.0
85.36,75.0
85.37,74.0
85.38,67.0
85.39,73.0
85.4,79.0
85.41,77.0
85.42,65.0
85.43,81.0
85.44,74.0
85.45,71.0
85.46,76.0
85.47,85.0
85.48,66.0
85.49,62.0
85.5,77.0
85.51,75.0
85.52,67.0
85.53,78.0
85.54,67.0
85.55,63.0
85.56,60.0
85.57,62.0
85.58,76.0
85.59,76.0
85.6,74.0
85.61,55.0
85.62,72.0
85.63,89.0
85.64,74.0
85.65,68.0
85.66,74.0
85.67,66.0
85.68,70.0
85.69,69.0
85.7,77.0
85.71,64.0
85.72,73.0
85.73,74.0
85.74,72.0
85.75,87.0
85.76,71.0
85.77,74.0
85.78,95.0
85.79,78.0
85.8,63.0
85.81,61.0
85.82,68.0
85.83,79.0
85.84,56.0
85.85,76.0
85.86,77.0
85.87,77.0
85.88,73.0
85.89,72.0
85.9,67.0
85.91,66.0
85.92,87.0
85.93,80.0
85.94,67.0
85.95,71.0
85.96,78.0
85.97,76.0
85.98,69.0
85.99,63.0
86.0,50.0
86.01,83.0
86.02,56.0
86.03,68.0
86.04,67.0
86.05,87.0
86.06,86.0
86.07,73.0
86.08,63.0
86.09,60.0
86.1,54.0
86.11,64.0
86.12,92.0
86.13,79.0
86.14,63.0
86.15,76.0
86.16,71.0
86.17,75.0
86.18,69.0
86.19,97.0
86.2,79.0
86.21,73.0
86.22,79.0
86.23,89.0
86.24,91.0
86.25,55.0
86.26,62.0
86.27,83.0
86.28,73.0
86.29,61.0
86.3,62.0
86.31,67.0
86.32,79.0
86.33,75.0
86.34,68.0
86.35,82.0
86.36,51.0
86.37,69.0
86.38,81.0
86.39,80.0
86.4,75.0
86.41,78.0
86.42,72.0
86.43,72.0
86.44,66.0
86.45,83.0
86.46,74.0
86.47,85.0
86.48,72.0
86.49,82.0
86.5,77.0
86.51,67.0
86.52,55.0
86.53,67.0
86.54,70.0
86.55,73.0
86.56,73.0
86.57,71.0
86.58,80.0
86.59,85.0
86.6,68.0
86.61,66.0
86.62,71.0
86.63,61.0
86.64,74.0
86.65,87.0
86.66,72.0
86.67,77.0
86.68,85.0
86.69,72.0
86.7,67.0
86.71,75.0
86.72,73.0
86.73,70.0
86.74,82.0
86.75,80.0
86.76,78.0
86.77,73.0
86.78,85.0
86.79,59.0
86.8,67.0
86.81,62.0
86.82,74.0
86.83,77.0
86.84,92.0
86.85,76.0
86.86,59.0
86.87,68.0
86.88,65.0
86.89,73.0
86.9,65.0
86.91,83.0
86.92,66.0
86.93,88.0
86.94,78.0
86.95,75.0
86.96,71.0
86.97,63.0
86.98,92.0
86.99,74.0
87.0,63.0
87.01,69.0
87.02,79.0
87.03,66.0
87.04,67.0
87.05,80.0
87.06,72.0
87.07,66.0
87.08,76.0
87.09,69.0
87.1,83.0
87.11,67.0
87.12,66.0
87.13,85.0
87.14,63.0
87.15,79.0
87.16,74.0
87.17,60.0
87.18,54.0
87.19,73.0
87.2,83.0
87.21,68.0
87.22,80.0
87.23,82.0
87.24,71.0
87.25,83.0
87.26,66.0
87.27,74.0
87.28,51.0
87.29,59.0
87.3,76.0
87.31,70.0
87.32,74.0
87.33,82.0
87.34,50.0
87.35,61.0
87.36,80.0
87.37,86.0
87.38,75.0
87.39,79.0
87.4,74.0
87.41,78.0
87.42,63.0
87.43,87.0
87.44,66.0
87.45,78.0
87.46,78.0
87.47,68.0
87.48,80.0
87.49,70.0
87.5,67.0
87.51,77.0
87.52,76.0
87.53,77.0
87.54,62.0
87.55,75.0
87.56,72.0
87.57,58.0
87.58,66.0
87.59,72.0
87.6,66.0
87.61,65.0
87.62,84.0
87.63,67.0
87.64,69.0
87.65,75.0
87.66,87.0
87.67,65.0
87.68,66.0
87.69,72.0
87.7,70.0
87.71,73.0
87.72,69.0
87.73,73.0
87.74,86.0
87.75,85.0
87.76,69.0
87.77,81.0
87.78,77.0
87.79,74.0
87.8,66.0
87.81,75.0
87.82,65.0
87.83,78.0
87.84,80.0
87.85,59.0
87.86,73.0
87.87,75.0
87.88,83.0
87.89,75.0
87.9,67.0
87.91,64.0
87.92,76.0
87.93,73.0
87.94,89.0
87.95,90.0
87.96,75.0
87.97,78.0
87.98,81.0
87.99,62.0
88.0,70.0
88.01,80.0
88.02,62.0
88.03,74.0
88.04,71.0
88.05,76.0
88.06,80.0
88.07,51.0
88.08,56.0
88.09,76.0
88.1,68.0
88.11,72.0
88.12,75.0
88.13,85.0
88.14,81.0
88.15,97.0
88.16,75.0
88.17,56.0
88.18,79.0
88.19,76.0
88.2,76.0
88.21,81.0
88.22,86.0
88.23,64.0
88.24,77.0
88.25,63.0
88.26,54.0
88.27,68.0
88.28,65.0
88.29,73.0
88.3,66.0
88.31,61.0
88.32,78.0
88.33,71.0
88.34,81.0
88.35,63.0
88.36,63.0
88.37,69.0
88.38,70.0
88.39,63.0
88.4,80.0
88.41,72.0
88.42,80.0
88.43,63.0
88.44,71.0
88.45,58.0
88.46,80.0
88.47,69.0
88.48,74.0
88.49,66.0
88.5,84.0
88.51,57.0
88.52,75.0
88.53,68.0
88.54,68.0
88.55,70.0
88.56,79.0
88.57,85.0
88.58,74.0
88.59,73.0
88.6,69.0
88.61,69.0
88.62,69.0
88.63,72.0
88.64,75.0
88.65,64.0
88.66,71.0
88.67,81.0
88.68,68.0
88.69,66.0
88.7,76.0
88.71,68.0
88.72,75.0
88.73,85.0
88.74,80.0
88.75,72.0
88.76,72.0
88.77,64.0
88.78,70.0
88.79,68.0
88.8,66.0
88.81,77.0
88.82,79.0
88.83,75.0
88.84,69.0
88.85,69.0
88.86,72.0
88.87,68.0
88.88,59.0
88.89,73.0
88.9,81.0
88.91,70.0
88.92,67.0
88.93,61.0
88.94,68.0
88.95,62.0
88.96,70.0
88.97,71.0
88.98,68.0
88.99,84.0
89.0,85.0
89.01,73.0
89.02,72.0
89.03,72.0
89.04,91.0
89.05,77.0
89.06,80.0
89.07,75.0
89.08,78.0
89.09,68.0
89.1,80.0
89.11,68.0
89.12,67.0
89.13,69.0
89.14,72.0
89.15,71.0
89.16,82.0
89.17,65.0
89.18,75.0
89.19,70.0
89.2,68.0
89.21,84.0
89.22,70.0
89.23,71.0
89.24,75.0
89.25,71.0
89.26,80.0
89.27,78.0
89.28,55.0
89.29,79.0
89.3,75.0
89.31,77.0
89.32,74.0
89.33,77.0
89.34,76.0
89.35,66.0
89.36,68.0
89.37,73.0
89.38,70.0
89.39,55.0
89.4,72.0
89.41,73.0
89.42,79.0
89.43,61.0
89.44,55.0
89.45,86.0
89.46,99.0
89.47,72.0
89.48,64.0
89.49,86.0
89.5,80.0
89.51,65.0
89.52,83.0
89.53,74.0
89.54,75.0
89.55,80.0
89.56,68.0
89.57,68.0
89.58,71.0
89.59,61.0
89.6,78.0
89.61,74.0
89.62,63.0
89.63,81.0
89.64,64.0
89.65,68.0
89.66,71.0
89.67,67.0
89.68,79.0
89.69,60.0
89.7,67.0
89.71,59.0
89.72,71.0
89.73,71.0
89.74,86.0
89.75,80.0
89.76,64.0
89.77,76.0
89.78,89.0
89.79,89.0
89.8,72.0
89.81,77.0
89.82,66.0
89.83,73.0
89.84,87.0
89.85,64.0
89.86,73.0
89.87,60.0
89.88,76.0
89.89,79.0
89.9,84.0
89.91,76.0
89.92,68.0
89.93,71.0
89.94,70.0
89.95,63.0
89.96,77.0
89.97,80.0
89.98,74.0
89.99,81.0
90.0,61.0
