angle,intensity
5.0,65.0
5.01,82.0
5.02,76.0
5.03,70.0
5.04,73.0
5.05,68.0
5.06,71.0
5.07,66.0
5.08,64.0
5.09,65.0
5.1,72.0
5.11,71.0
5.12,66.0
5.13,82.0
5.14,74.0
5.15,62.0
5.16,62.0
5.17,71.0
5.18,71.0
5.19,66.0
5.2,70.0
5.21,70.0
5.22,61.0
5.23,72.0
5.24,75.0
5.25,77.0
5.26,64.0
5.27,64.0
5.28,72.0
5.29,70.0
5.3,62.0
5.31,77.0
5.32,51.0
5.33,90.0
5.34,77.0
5.35,72.0
5.36,67.0
5.37,94.0
5.38,83.0
5.39,72.0
5.4,72.0
5.41,86.0
5.42,74.0
5.43,77.0
5.44,80.0
5.45,70.0
5.46,70.0
5.47,76.0
5.48,81.0
5.49,72.0
5.5,87.0
5.51,70.0
5.52,73.0
5.53,63.0
5.54,65.0
5.55,65.0
5.56,92.0
5.57,71.0
5.58,67.0
5.59,85.0
5.6,81.0
5.61,81.0
5.62,67.0
5.63,83.0
5.64,80.0
5.65,54.0
5.66,70.0
5.67,67.0
5.68,68.0
5.69,67.0
5.7,70.0
5.71,66.0
5.72,73.0
5.73,64.0
5.74,75.0
5.75,86.0
5.76,79.0
5.77,71.0
5.78,65.0
5.79,73.0
5.8,78.0
5.81,74.0
5.82,65.0
5.83,69.0
5.84,80.0
5.85,79.0
5.86,68.0
5.87,79.0
5.88,85.0
5.89,86.0
5.9,68.0
5.91,86.0
5.92,74.0
5.93,81.0
5.94,70.0
5.95,67.0
5.96,72.0
5.97,74.0
5.98,76.0
5.99,78.0
6.0,80.0
6.01,78.0
6.02,74.0
6.03,77.0
6.04,101.0
6.05,65.0
6.06,80.0
6.07,73.0
6.08,52.0
6.09,76.0
6.1,76.0
6.11,79.0
6.12,64.0
6.13,75.0
6.14,82.0
6.15,79.0
6.16,84.0
6.17,69.0
6.18,91.0
6.19,66.0
6.2,79.0
6.21,79.0
6.22,77.0
6.23,72.0
6.24,70.0
6.25,77.0
6.26,63.0
6.27,80.0
6.28,84.0
6.29,93.0
6.3,75.0
6.31,75.0
6.32,80.0
6.33,76.0
6.34,75.0
6.35,80.0
6.36,59.0
6.37,64.0
6.38,90.0
6.39,57.0
6.4,77.0
6.41,88.0
6.42,61.0
6.43,89.0
6.44,77.0
6.45,69.0
6.46,76.0
6.47,97.0
6.48,79.0
6.49,79.0
6.5,67.0
6.51,68.0
6.52,68.0
6.53,82.0
6.54,70.0
6.55,67.0
6.56,71.0
6.57,69.0
6.58,71.0
6.59,75.0
6.6,77.0
6.61,72.0
6.62,86.0
6.63,72.0
6.64,68.0
6.65,86.0
6.66,89.0
6.67,75.0
6.68,72.0
6.69,73.0
6.7,84.0
6.71,80.0
6.72,72.0
6.73,64.0
6.74,76.0
6.75,71.0
6.76,72.0
6.77,81.0
6.78,82.0
6.79,71.0
6.8,73.0
6.81,85.0
6.82,74.0
6.83,73.0
6.84,90.0
6.85,79.0
6.86,80.0
6.87,73.0
6.88,88.0
6.89,75.0
6.9,64.0
6.91,72.0
6.92,71.0
6.93,89.0
6.94,75.0
6.95,69.0
6.96,70.0
6.97,87.0
6.98,74.0
6.99,75.0
7.0,85.0
7.01,75.0
7.02,71.0
7.03,55.0
7.04,66.0
7.05,66.0
7.06,83.0
7.07,61.0
7.08,82.0
7.09,74.0
7.1,61.0
7.11,70.0
7.12,82.0
7.13,84.0
7.14,81.0
7.15,71.0
7.16,81.0
7.17,66.0
7.18,77.0
7.19,78.0
7.2,73.0
7.21,83.0
7.22,77.0
7.23,83.0
7.24,70.0
7.25,66.0
7.26,66.0
7.27,84.0
7.28,79.0
7.29,63.0
7.3,75.0
7.31,75.0
7.32,81.0
7.33,73.0
7.34,71.0
7.35,76.0
7.36,64.0
7.37,63.0
7.38,93.0
7.39,83.0
7.4,74.0
7.41,80.0
7.42,78.0
7.43,66.0
7.44,76.0
7.45,61.0
7.46,68.0
7.47,67.0
7.48,74.0
7.49,57.0
7.5,72.0
7.51,59.0
7.52,81.0
7.53,63.0
7.54,84.0
7.55,63.0
7.56,91.0
7.57,74.0
7.58,66.0
7.59,85.0
7.6,83.0
7.61,94.0
7.62,65.0
7.63,59.0
7.64,77.0
7.65,58.0
7.66,76.0
7.67,76.0
7.68,81.0
7.69,83.0
7.7,73.0
7.71,82.0
7.72,73.0
7.73,62.0
7.74,88.0
7.75,71.0
7.76,67.0
7.77,76.0
7.78,71.0
7.79,73.0
7.8,82.0
7.81,73.0
7.82,62.0
7.83,68.0
7.84,86.0
7.85,74.0
7.86,78.0
7.87,71.0
7.88,85.0
7.89,104.0
7.9,65.0
7.91,66.0
7.92,62.0
7.93,72.0
7.94,95.0
7.95,59.0
7.96,61.0
7.97,57.0
7.98,53.0
7.99,80.0
8.0,75.0
8.01,74.0
8.02,74.0
8.03,97.0
8.04,82.0
8.05,85.0
8.06,85.0
8.07,68.0
8.08,56.0
8.09,71.0
8.1,58.0
8.11,62.0
8.12,77.0
8.13,68.0
8.14,73.0
8.15,73.0
8.16,78.0
8.17,64.0
8.18,51.0
8.19,83.0
8.2,80.0
8.21,67.0
8.22,67.0
8.23,70.0
8.24,89.0
8.25,72.0
8.26,72.0
8.27,65.0
8.28,72.0
8.29,65.0
8.3,73.0
8.31,67.0
8.32,74.0
8.33,65.0
8.34,75.0
8.35,63.0
8.36,57.0
8.37,72.0
8.38,83.0
8.39,90.0
8.4,83.0
8.41,59.0
8.42,67.0
8.43,68.0
8.44,77.0
8.45,67.0
8.46,69.0
8.47,70.0
8.48,67.0
8.49,77.0
8.5,75.0
8.51,88.0
8.52,72.0
8.53,68.0
8.54,74.0
8.55,77.0
8.56,70.0
8.57,73.0
8.58,87.0
8.59,65.0
8.6,82.0
8.61,63.0
8.62,68.0
8.63,68.0
8.64,92.0
8.65,75.0
8.66,73.0
8.67,69.0
8.68,56.0
8.69,78.0
8.7,62.0
8.71,68.0
8.72,74.0
8.73,61.0
8.74,87.0
8.75,77.0
8.76,85.0
8.77,67.0
8.78,82.0
8.79,84.0
8.8,86.0
8.81,72.0
8.82,68.0
8.83,83.0
8.84,66.0
8.85,75.0
8.86,86.0
8.87,59.0
8.88,66.0
8.89,95.0
8.9,70.0
8.91,78.0
8.92,66.0
8.93,83.0
8.94,74.0
8.95,73.0
8.96,72.0
8.97,87.0
8.98,68.0
8.99,74.0
9.0,60.0
9.01,71.0
9.02,67.0
9.03,65.0
9.04,68.0
9.05,74.0
9.06,85.0
9.07,58.0
9.08,73.0
9.09,70.0
9.1,64.0
9.11,65.0
9.12,78.0
9.13,66.0
9.14,64.0
9.15,75.0
9.16,60.0
9.17,92.0
9.18,72.0
9.19,67.0
9.2,63.0
9.21,79.0
9.22,76.0
9.23,76.0
9.24,65.0
9.25,60.0
9.26,70.0
9.27,63.0
9.28,73.0
9.29,64.0
9.3,67.0
9.31,69.0
9.32,80.0
9.33,71.0
9.34,59.0
9.35,80.0
9.36,67.0
9.37,76.0
9.38,65.0
9.39,58.0
9.4,73.0
9.41,59.0
9.42,69.0
9.43,76.0
9.44,67.0
9.45,78.0
9.46,74.0
9.47,60.0
9.48,73.0
9.49,69.0
9.5,79.0
9.51,90.0
9.52,75.0
9.53,73.0
9.54,71.0
9.55,77.0
9.56,65.0
9.57,87.0
9.58,80.0
9.59,74.0
9.6,86.0
9.61,84.0
9.62,84.0
9.63,69.0
9.64,70.0
9.65,97.0
9.66,92.0
9.67,84.0
9.68,95.0
9.69,100.0
9.7,117.0
9.71,98.0
9.72,90.0
9.73,106.0
9.74,100.0
9.75,115.0
9.76,89.0
9.77,83.0
9.78,88.0
9.79,69.0
9.8,72.0
9.81,84.0
9.82,89.0
9.83,75.0
9.84,66.0
9.85,66.0
9.86,74.0
9.87,65.0
9.88,66.0
9.89,64.0
9.9,80.0
9.91,66.0
9.92,72.0
9.93,67.0
9.94,65.0
9.95,81.0
9.96,86.0
9.97,77.0
9.98,80.0
9.99,71.0
10.0,69.0
10.01,83.0
10.02,55.0
10.03,81.0
10.04,73.0
10.05,64.0
10.06,72.0
10.07,81.0
10.08,72.0
10.09,68.0
10.1,84.0
10.11,69.0
10.12,79.0
10.13,82.0
10.14,76.0
10.15,68.0
10.16,62.0
10.17,78.0
10.18,68.0
10.19,76.0
10.2,76.0
10.21,68.0
10.22,82.0
10.23,71.0
10.24,64.0
10.25,84.0
10.26,65.0
10.27,78.0
10.28,79.0
10.29,64.0
10.3,79.0
10.31,72.0
10.32,62.0
10.33,97.0
10.34,77.0
10.35,69.0
10.36,80.0
10.37,69.0
10.38,74.0
10.39,80.0
10.4,81.0
10.41,74.0
10.42,97.0
10.43,80.0
10.44,91.0
10.45,100.0
10.46,89.0
10.47,98.0
10.48,103.0
10.49,83.0
10.5,107.0
10.51,113.0
10.52,121.0
10.53,140.0
10.54,148.0
10.55,174.0
10.56,213.0
10.57,222.0
10.58,287.0
10.59,363.0
10.6,386.0
10.61,412.0
10.62,449.0
10.63,365.0
10.64,301.0
10.65,246.0
10.66,168.0
10.67,150.0
10.68,117.0
10.69,109.0
10.7,103.0
10.71,110.0
10.72,85.0
10.73,93.0
10.74,87.0
10.75,88.0
10.76,85.0
10.77,77.0
10.78,89.0
10.79,80.0
10.8,70.0
10.81,94.0
10.82,69.0
10.83,81.0
10.84,63.0
10.85,71.0
10.86,81.0
10.87,79.0
10.88,77.0
10.89,67.0
10.9,78.0
10.91,66.0
10.92,66.0
10.93,78.0
10.94,82.0
10.95,66.0
10.96,72.0
10.97,94.0
10.98,74.0
10.99,82.0
11.0,80.0
11.01,72.0
11.02,70.0
11.03,67.0
11.04,73.0
11.05,55.0
11.06,59.0
11.07,67.0
11.08,76.0
11.09,81.0
11.1,63.0
11.11,70.0
11.12,73.0
11.13,84.0
11.14,70.0
11.15,73.0
11.16,73.0
11.17,73.0
11.18,83.0
11.19,66.0
11.2,73.0
11.21,58.0
11.22,75.0
11.23,85.0
11.24,83.0
11.25,78.0
11.26,74.0
11.27,83.0
11.28,84.0
11.29,66.0
11.3,80.0
11.31,77.0
11.32,84.0
11.33,72.0
11.34,77.0
11.35,63.0
11.36,67.0
11.37,65.0
11.38,81.0
11.39,71.0
11.4,74.0
11.41,77.0
11.42,78.0
11.43,85.0
11.44,73.0
11.45,88.0
11.46,82.0
11.47,58.0
11.48,81.0
11.49,62.0
11.5,80.0
11.51,64.0
11.52,82.0
11.53,74.0
11.54,85.0
11.55,81.0
11.56,74.0
11.57,62.0
11.58,85.0
11.59,72.0
11.6,61.0
11.61,87.0
11.62,89.0
11.63,71.0
11.64,74.0
11.65,69.0
11.66,77.0
11.67,75.0
11.68,61.0
11.69,57.0
11.7,73.0
11.71,60.0
11.72,68.0
11.73,104.0
11.74,71.0
11.75,74.0
11.76,69.0
11.77,72.0
11.78,77.0
11.79,72.0
11.8,81.0
11.81,81.0
11.82,76.0
11.83,89.0
11.84,77.0
11.85,67.0
11.86,73.0
11.87,76.0
11.88,70.0
11.89,72.0
11.9,81.0
11.91,73.0
11.92,63.0
11.93,90.0
11.94,80.0
11.95,71.0
11.96,66.0
11.97,81.0
11.98,72.0
11.99,82.0
12.0,90.0
12.01,75.0
12.02,80.0
12.03,84.0
12.04,87.0
12.05,88.0
12.06,87.0
12.07,70.0
12.08,75.0
12.09,85.0
12.1,67.0
12.11,90.0
12.12,86.0
12.13,85.0
12.14,69.0
12.15,115.0
12.16,98.0
12.17,79.0
12.18,85.0
12.19,109.0
12.2,120.0
12.21,119.0
12.22,104.0
12.23,93.0
12.24,107.0
12.25,100.0
12.26,105.0
12.27,89.0
12.28,123.0
12.29,106.0
12.3,84.0
12.31,97.0
12.32,105.0
12.33,72.0
12.34,81.0
12.35,83.0
12.36,83.0
12.37,81.0
12.38,64.0
12.39,88.0
12.4,86.0
12.41,83.0
12.42,60.0
12.43,93.0
12.44,81.0
12.45,67.0
12.46,60.0
12.47,96.0
12.48,61.0
12.49,78.0
12.5,79.0
12.51,58.0
12.52,65.0
12.53,92.0
12.54,72.0
12.55,94.0
12.56,87.0
12.57,85.0
12.58,77.0
12.59,63.0
12.6,94.0
12.61,79.0
12.62,61.0
12.63,81.0
12.64,76.0
12.65,56.0
12.66,70.0
12.67,65.0
12.68,74.0
12.69,69.0
12.7,78.0
12.71,72.0
12.72,76.0
12.73,59.0
12.74,63.0
12.75,79.0
12.76,70.0
12.77,72.0
12.78,71.0
12.79,58.0
12.8,76.0
12.81,67.0
12.82,72.0
12.83,85.0
12.84,78.0
12.85,57.0
12.86,73.0
12.87,70.0
12.88,79.0
12.89,68.0
12.9,74.0
12.91,65.0
12.92,61.0
12.93,77.0
12.94,86.0
12.95,73.0
12.96,64.0
12.97,63.0
12.98,63.0
12.99,82.0
13.0,76.0
13.01,63.0
13.02,78.0
13.03,76.0
13.04,75.0
13.05,76.0
13.06,69.0
13.07,69.0
13.08,75.0
13.09,54.0
13.1,79.0
13.11,72.0
13.12,77.0
13.13,82.0
13.14,61.0
13.15,80.0
13.16,64.0
13.17,57.0
13.18,64.0
13.19,71.0
13.2,73.0
13.21,69.0
13.22,76.0
13.23,58.0
13.24,77.0
13.25,74.0
13.26,88.0
13.27,68.0
13.28,68.0
13.29,75.0
13.3,83.0
13.31,85.0
13.32,76.0
13.33,71.0
13.34,67.0
13.35,72.0
13.36,60.0
13.37,82.0
13.38,67.0
13.39,72.0
13.4,78.0
13.41,68.0
13.42,66.0
13.43,62.0
13.44,78.0
13.45,53.0
13.46,62.0
13.47,78.0
13.48,76.0
13.49,67.0
13.5,68.0
13.51,63.0
13.52,79.0
13.53,53.0
13.54,76.0
13.55,77.0
13.56,80.0
13.57,75.0
13.58,75.0
13.59,80.0
13.6,63.0
13.61,63.0
13.62,65.0
13.63,65.0
13.64,83.0
13.65,78.0
13.66,74.0
13.67,65.0
13.68,68.0
13.69,66.0
13.7,73.0
13.71,84.0
13.72,81.0
13.73,89.0
13.74,83.0
13.75,88.0
13.76,75.0
13.77,86.0
13.78,50.0
13.79,59.0
13.8,64.0
13.81,71.0
13.82,69.0
13.83,76.0
13.84,70.0
13.85,73.0
13.86,71.0
13.87,75.0
13.88,53.0
13.89,57.0
13.9,78.0
13.91,79.0
13.92,67.0
13.93,61.0
13.94,68.0
13.95,83.0
13.96,73.0
13.97,66.0
13.98,70.0
13.99,63.0
14.0,62.0
14.01,64.0
14.02,69.0
14.03,71.0
14.04,66.0
14.05,51.0
14.06,65.0
14.07,60.0
14.08,63.0
14.09,84.0
14.1,71.0
14.11,58.0
14.12,79.0
14.13,70.0
14.14,79.0
14.15,68.0
14.16,81.0
14.17,60.0
14.18,75.0
14.19,59.0
14.2,67.0
14.21,76.0
14.22,63.0
14.23,68.0
14.24,73.0
14.25,68.0
14.26,64.0
14.27,81.0
14.28,72.0
14.29,68.0
14.3,97.0
14.31,66.0
14.32,54.0
14.33,75.0
14.34,79.0
14.35,72.0
14.36,65.0
14.37,62.0
14.38,74.0
14.39,67.0
14.4,72.0
14.41,61.0
14.42,80.0
14.43,61.0
14.44,65.0
14.45,58.0
14.46,70.0
14.47,80.0
14.48,69.0
14.49,75.0
14.5,67.0
14.51,96.0
14.52,72.0
14.53,87.0
14.54,60.0
14.55,75.0
14.56,72.0
14.57,66.0
14.58,68.0
14.59,71.0
14.6,62.0
14.61,61.0
14.62,62.0
14.63,65.0
14.64,82.0
14.65,59.0
14.66,77.0
14.67,70.0
14.68,77.0
14.69,76.0
14.7,79.0
14.71,71.0
14.72,60.0
14.73,83.0
14.74,69.0
14.75,87.0
14.76,75.0
14.77,74.0
14.78,76.0
14.79,62.0
14.8,65.0
14.81,71.0
14.82,72.0
14.83,62.0
14.84,72.0
14.85,83.0
14.86,66.0
14.87,89.0
14.88,68.0
14.89,78.0
14.9,69.0
14.91,65.0
14.92,76.0
14.93,67.0
14.94,65.0
14.95,63.0
14.96,70.0
14.97,60.0
14.98,80.0
14.99,62.0
15.0,63.0
15.01,77.0
15.02,75.0
15.03,71.0
15.04,66.0
15.05,64.0
15.06,75.0
15.07,73.0
15.08,77.0
15.09,70.0
15.1,81.0
15.11,58.0
15.12,72.0
15.13,50.0
15.14,69.0
15.15,66.0
15.16,75.0
15.17,72.0
15.18,78.0
15.19,64.0
15.2,74.0
15.21,78.0
15.22,75.0
15.23,80.0
15.24,63.0
15.25,76.0
15.26,76.0
15.27,71.0
15.28,50.0
15.29,53.0
15.3,78.0
15.31,77.0
15.32,68.0
15.33,74.0
15.34,74.0
15.35,76.0
15.36,67.0
15.37,78.0
15.38,54.0
15.39,72.0
15.4,76.0
15.41,61.0
15.42,68.0
15.43,66.0
15.44,65.0
15.45,60.0
15.46,77.0
15.47,66.0
15.48,58.0
15.49,78.0
15.5,68.0
15.51,63.0
15.52,78.0
15.53,70.0
15.54,78.0
15.55,76.0
15.56,85.0
15.57,80.0
15.58,62.0
15.59,68.0
15.6,78.0
15.61,69.0
15.62,78.0
15.63,74.0
15.64,76.0
15.65,63.0
15.66,76.0
15.67,60.0
15.68,68.0
15.69,58.0
15.7,78.0
15.71,74.0
15.72,62.0
15.73,68.0
15.74,83.0
15.75,62.0
15.76,63.0
15.77,69.0
15.78,72.0
15.79,64.0
15.8,57.0
15.81,76.0
15.82,66.0
15.83,75.0
15.84,77.0
15.85,72.0
15.86,58.0
15.87,83.0
15.88,68.0
15.89,68.0
15.9,57.0
15.91,54.0
15.92,71.0
15.93,87.0
15.94,81.0
15.95,71.0
15.96,68.0
15.97,67.0
15.98,64.0
15.99,55.0
16.0,85.0
16.01,79.0
16.02,67.0
16.03,60.0
16.04,77.0
16.05,71.0
16.06,87.0
16.07,68.0
16.08,67.0
16.09,88.0
16.1,75.0
16.11,72.0
16.12,81.0
16.13,73.0
16.14,70.0
16.15,68.0
16.16,69.0
16.17,78.0
16.18,66.0
16.19,84.0
16.2,75.0
16.21,65.0
16.22,66.0
16.23,51.0
16.24,68.0
16.25,84.0
16.26,72.0
16.27,76.0
16.28,62.0
16.29,78.0
16.3,78.0
16.31,73.0
16.32,76.0
16.33,76.0
16.34,70.0
16.35,87.0
16.36,78.0
16.37,78.0
16.38,63.0
16.39,64.0
16.4,69.0
16.41,74.0
16.42,73.0
16.43,76.0
16.44,70.0
16.45,63.0
16.46,73.0
16.47,76.0
16.48,72.0
16.49,75.0
16.5,76.0
16.51,72.0
16.52,66.0
16.53,59.0
16.54,69.0
16.55,76.0
16.56,70.0
16.57,77.0
16.58,79.0
16.59,67.0
16.6,86.0
16.61,84.0
16.62,80.0
16.63,73.0
16.64,78.0
16.65,65.0
16.66,78.0
16.67,56.0
16.68,73.0
16.69,81.0
16.7,69.0
16.71,81.0
16.72,60.0
16.73,74.0
16.74,65.0
16.75,61.0
16.76,59.0
16.77,82.0
16.78,67.0
16.79,71.0
16.8,70.0
16.81,74.0
16.82,71.0
16.83,82.0
16.84,71.0
16.85,80.0
16.86,58.0
16.87,64.0
16.88,64.0
16.89,73.0
16.9,71.0
16.91,65.0
16.92,81.0
16.93,70.0
16.94,87.0
16.95,58.0
16.96,73.0
16.97,66.0
16.98,78.0
16.99,81.0
17.0,82.0
17.01,71.0
17.02,72.0
17.03,59.0
17.04,72.0
17.05,71.0
17.06,67.0
17.07,85.0
17.08,64.0
17.09,76.0
17.1,88.0
17.11,74.0
17.12,67.0
17.13,64.0
17.14,62.0
17.15,95.0
17.16,68.0
17.17,70.0
17.18,67.0
17.19,66.0
17.2,86.0
17.21,78.0
17.22,73.0
17.23,79.0
17.24,69.0
17.25,67.0
17.26,75.0
17.27,68.0
17.28,71.0
17.29,63.0
17.3,78.0
17.31,69.0
17.32,71.0
17.33,60.0
17.34,71.0
17.35,75.0
17.36,90.0
17.37,64.0
17.38,66.0
17.39,92.0
17.4,77.0
17.41,96.0
17.42,93.0
17.43,74.0
17.44,72.0
17.45,66.0
17.46,64.0
17.47,80.0
17.48,67.0
17.49,66.0
17.5,58.0
17.51,80.0
17.52,72.0
17.53,67.0
17.54,69.0
17.55,81.0
17.56,69.0
17.57,70.0
17.58,61.0
17.59,74.0
17.6,77.0
17.61,63.0
17.62,63.0
17.63,74.0
17.64,80.0
17.65,73.0
17.66,76.0
17.67,78.0
17.68,64.0
17.69,81.0
17.7,78.0
17.71,64.0
17.72,66.0
17.73,73.0
17.74,77.0
17.75,68.0
17.76,72.0
17.77,82.0
17.78,84.0
17.79,68.0
17.8,73.0
17.81,66.0
17.82,72.0
17.83,76.0
17.84,81.0
17.85,57.0
17.86,70.0
17.87,79.0
17.88,85.0
17.89,71.0
17.9,81.0
17.91,68.0
17.92,69.0
17.93,64.0
17.94,80.0
17.95,75.0
17.96,71.0
17.97,73.0
17.98,76.0
17.99,86.0
18.0,78.0
18.01,81.0
18.02,67.0
18.03,79.0
18.04,78.0
18.05,79.0
18.06,72.0
18.07,73.0
18.08,76.0
18.09,64.0
18.1,68.0
18.11,73.0
18.12,67.0
18.13,76.0
18.14,69.0
18.15,85.0
18.16,94.0
18.17,74.0
18.18,64.0
18.19,70.0
18.2,84.0
18.21,70.0
18.22,77.0
18.23,71.0
18.24,74.0
18.25,90.0
18.26,87.0
18.27,76.0
18.28,66.0
18.29,75.0
18.3,94.0
18.31,85.0
18.32,67.0
18.33,79.0
18.34,81.0
18.35,83.0
18.36,54.0
18.37,77.0
18.38,72.0
18.39,65.0
18.4,85.0
18.41,58.0
18.42,63.0
18.43,68.0
18.44,59.0
18.45,70.0
18.46,84.0
18.47,67.0
18.48,58.0
18.49,70.0
18.5,76.0
18.51,72.0
18.52,65.0
18.53,85.0
18.54,68.0
18.55,65.0
18.56,72.0
18.57,59.0
18.58,67.0
18.59,72.0
18.6,68.0
18.61,58.0
18.62,75.0
18.63,82.0
18.64,74.0
18.65,72.0
18.66,73.0
18.67,66.0
18.68,63.0
18.69,63.0
18.7,65.0
18.71,50.0
18.72,84.0
18.73,83.0
18.74,64.0
18.75,88.0
18.76,82.0
18.77,76.0
18.78,82.0
18.79,67.0
18.8,81.0
18.81,87.0
18.82,89.0
18.83,68.0
18.84,77.0
18.85,77.0
18.86,78.0
18.87,71.0
18.88,92.0
18.89,69.0
18.9,69.0
18.91,96.0
18.92,99.0
18.93,79.0
18.94,71.0
18.95,80.0
18.96,80.0
18.97,80.0
18.98,72.0
18.99,67.0
19.0,79.0
19.01,88.0
19.02,76.0
19.03,72.0
19.04,86.0
19.05,86.0
19.06,54.0
19.07,69.0
19.08,57.0
19.09,75.0
19.1,59.0
19.11,73.0
19.12,75.0
19.13,61.0
19.14,60.0
19.15,70.0
19.16,70.0
19.17,75.0
19.18,70.0
19.19,81.0
19.2,63.0
19.21,78.0
19.22,80.0
19.23,80.0
19.24,74.0
19.25,79.0
19.26,84.0
19.27,66.0
19.28,72.0
19.29,58.0
19.3,69.0
19.31,93.0
19.32,77.0
19.33,83.0
19.34,76.0
19.35,86.0
19.36,69.0
19.37,82.0
19.38,81.0
19.39,69.0
19.4,78.0
19.41,93.0
19.42,84.0
19.43,79.0
19.44,94.0
19.45,73.0
19.46,76.0
19.47,84.0
19.48,80.0
19.49,88.0
19.5,97.0
19.51,86.0
19.52,83.0
19.53,90.0
19.54,74.0
19.55,62.0
19.56,66.0
19.57,68.0
19.58,75.0
19.59,77.0
19.6,68.0
19.61,68.0
19.62,75.0
19.63,70.0
19.64,70.0
19.65,81.0
19.66,86.0
19.67,72.0
19.68,78.0
19.69,75.0
19.7,79.0
19.71,63.0
19.72,67.0
19.73,73.0
19.74,58.0
19.75,60.0
19.76,74.0
19.77,67.0
19.78,81.0
19.79,86.0
19.8,82.0
19.81,68.0
19.82,61.0
19.83,80.0
19.84,76.0
19.85,64.0
19.86,75.0
19.87,85.0
19.88,61.0
19.89,71.0
19.9,91.0
19.91,76.0
19.92,79.0
19.93,61.0
19.94,74.0
19.95,58.0
19.96,65.0
19.97,65.0
19.98,68.0
19.99,94.0
20.0,60.0
20.01,60.0
20.02,68.0
20.03,74.0
20.04,86.0
20.05,69.0
20.06,78.0
20.07,84.0
20.08,82.0
20.09,71.0
20.1,88.0
20.11,73.0
20.12,66.0
20.13,84.0
20.14,84.0
20.15,78.0
20.16,75.0
20.17,51.0
20.18,88.0
20.19,73.0
20.2,67.0
20.21,83.0
20.22,58.0
20.23,63.0
20.24,71.0
20.25,62.0
20.26,58.0
20.27,72.0
20.28,65.0
20.29,78.0
20.3,68.0
20.31,72.0
20.32,64.0
20.33,68.0
20.34,73.0
20.35,63.0
20.36,77.0
20.37,60.0
20.38,90.0
20.39,75.0
20.4,68.0
20.41,70.0
20.42,80.0
20.43,72.0
20.44,74.0
20.45,84.0
20.46,81.0
20.47,70.0
20.48,88.0
20.49,55.0
20.5,67.0
20.51,59.0
20.52,84.0
20.53,64.0
20.54,64.0
20.55,84.0
20.56,85.0
20.57,76.0
20.58,71.0
20.59,68.0
20.6,73.0
20.61,63.0
20.62,79.0
20.63,80.0
20.64,74.0
20.65,61.0
20.66,81.0
20.67,71.0
20.68,68.0
20.69,77.0
20.7,82.0
20.71,58.0
20.72,70.0
20.73,81.0
20.74,88.0
20.75,77.0
20.76,67.0
20.77,69.0
20.78,67.0
20.79,79.0
20.8,73.0
20.81,61.0
20.82,75.0
20.83,67.0
20.84,73.0
20.85,73.0
20.86,73.0
20.87,66.0
20.88,73.0
20.89,68.0
20.9,85.0
20.91,75.0
20.92,72.0
20.93,76.0
20.94,79.0
20.95,72.0
20.96,76.0
20.97,82.0
20.98,62.0
20.99,63.0
21.0,71.0
21.01,72.0
21.02,67.0
21.03,81.0
21.04,74.0
21.05,69.0
21.06,84.0
21.07,70.0
21.08,53.0
21.09,72.0
21.1,58.0
21.11,70.0
21.12,62.0
21.13,73.0
21.14,64.0
21.15,81.0
21.16,73.0
21.17,72.0
21.18,69.0
21.19,71.0
21.2,60.0
21.21,75.0
21.22,77.0
21.23,97.0
21.24,69.0
21.25,115.0
21.26,96.0
21.27,91.0
21.28,93.0
21.29,86.0
21.3,89.0
21.31,95.0
21.32,92.0
21.33,87.0
21.34,93.0
21.35,83.0
21.36,78.0
21.37,84.0
21.38,73.0
21.39,68.0
21.4,77.0
21.41,77.0
21.42,71.0
21.43,75.0
21.44,75.0
21.45,89.0
21.46,80.0
21.47,74.0
21.48,71.0
21.49,78.0
21.5,73.0
21.51,73.0
21.52,79.0
21.53,79.0
21.54,74.0
21.55,71.0
21.56,60.0
21.57,74.0
21.58,72.0
21.59,74.0
21.6,87.0
21.61,82.0
21.62,61.0
21.63,85.0
21.64,59.0
21.65,67.0
21.66,71.0
21.67,65.0
21.68,87.0
21.69,72.0
21.7,67.0
21.71,83.0
21.72,80.0
21.73,70.0
21.74,72.0
21.75,82.0
21.76,69.0
21.77,76.0
21.78,74.0
21.79,57.0
21.8,78.0
21.81,91.0
21.82,72.0
21.83,70.0
21.84,78.0
21.85,63.0
21.86,85.0
21.87,84.0
21.88,70.0
21.89,83.0
21.9,67.0
21.91,75.0
21.92,58.0
21.93,56.0
21.94,88.0
21.95,61.0
21.96,61.0
21.97,61.0
21.98,63.0
21.99,66.0
22.0,74.0
22.01,68.0
22.02,65.0
22.03,76.0
22.04,69.0
22.05,75.0
22.06,65.0
22.07,55.0
22.08,84.0
22.09,62.0
22.1,68.0
22.11,64.0
22.12,67.0
22.13,70.0
22.14,71.0
22.15,88.0
22.16,64.0
22.17,59.0
22.18,61.0
22.19,95.0
22.2,80.0
22.21,79.0
22.22,73.0
22.23,58.0
22.24,75.0
22.25,82.0
22.26,71.0
22.27,68.0
22.28,71.0
22.29,64.0
22.3,72.0
22.31,75.0
22.32,64.0
22.33,73.0
22.34,64.0
22.35,79.0
22.36,74.0
22.37,83.0
22.38,70.0
22.39,79.0
22.4,67.0
22.41,65.0
22.42,68.0
22.43,63.0
22.44,69.0
22.45,76.0
22.46,62.0
22.47,81.0
22.48,74.0
22.49,74.0
22.5,67.0
22.51,81.0
22.52,70.0
22.53,69.0
22.54,64.0
22.55,68.0
22.56,70.0
22.57,73.0
22.58,69.0
22.59,65.0
22.6,75.0
22.61,46.0
22.62,71.0
22.63,81.0
22.64,80.0
22.65,84.0
22.66,72.0
22.67,81.0
22.68,68.0
22.69,72.0
22.7,85.0
22.71,81.0
22.72,74.0
22.73,75.0
22.74,82.0
22.75,86.0
22.76,69.0
22.77,71.0
22.78,71.0
22.79,62.0
22.8,74.0
22.81,68.0
22.82,77.0
22.83,64.0
22.84,90.0
22.85,80.0
22.86,74.0
22.87,69.0
22.88,75.0
22.89,78.0
22.9,80.0
22.91,83.0
22.92,73.0
22.93,84.0
22.94,96.0
22.95,91.0
22.96,84.0
22.97,75.0
22.98,88.0
22.99,80.0
23.0,87.0
23.01,75.0
23.02,71.0
23.03,78.0
23.04,69.0
23.05,71.0
23.06,67.0
23.07,76.0
23.08,60.0
23.09,73.0
23.1,80.0
23.11,64.0
23.12,85.0
23.13,84.0
23.14,82.0
23.15,85.0
23.16,81.0
23.17,77.0
23.18,87.0
23.19,73.0
23.2,74.0
23.21,63.0
23.22,69.0
23.23,80.0
23.24,68.0
23.25,76.0
23.26,75.0
23.27,68.0
23.28,96.0
23.29,91.0
23.3,97.0
23.31,72.0
23.32,82.0
23.33,81.0
23.34,72.0
23.35,86.0
23.36,82.0
23.37,68.0
23.38,64.0
23.39,74.0
23.4,64.0
23.41,78.0
23.42,49.0
23.43,69.0
23.44,66.0
23.45,73.0
23.46,80.0
23.47,64.0
23.48,70.0
23.49,59.0
23.5,73.0
23.51,87.0
23.52,86.0
23.53,72.0
23.54,73.0
23.55,79.0
23.56,87.0
23.57,78.0
23.58,76.0
23.59,83.0
23.6,73.0
23.61,61.0
23.62,69.0
23.63,65.0
23.64,71.0
23.65,68.0
23.66,71.0
23.67,69.0
23.68,69.0
23.69,70.0
23.7,96.0
23.71,59.0
23.72,92.0
23.73,75.0
23.74,74.0
23.75,72.0
23.76,84.0
23.77,67.0
23.78,62.0
23.79,76.0
23.8,74.0
23.81,62.0
23.82,83.0
23.83,75.0
23.84,62.0
23.85,79.0
23.86,84.0
23.87,73.0
23.88,62.0
23.89,82.0
23.9,82.0
23.91,71.0
23.92,80.0
23.93,84.0
23.94,74.0
23.95,70.0
23.96,83.0
23.97,78.0
23.98,84.0
23.99,65.0
24.0,66.0
24.01,75.0
24.02,71.0
24.03,74.0
24.04,84.0
24.05,62.0
24.06,71.0
24.07,78.0
24.08,96.0
24.09,56.0
24.1,64.0
24.11,61.0
24.12,74.0
24.13,74.0
24.14,63.0
24.15,84.0
24.16,70.0
24.17,76.0
24.18,76.0
24.19,60.0
24.2,70.0
24.21,46.0
24.22,66.0
24.23,85.0
24.24,69.0
24.25,87.0
24.26,63.0
24.27,76.0
24.28,75.0
24.29,78.0
24.3,72.0
24.31,77.0
24.32,71.0
24.33,74.0
24.34,68.0
24.35,85.0
24.36,83.0
24.37,99.0
24.38,80.0
24.39,78.0
24.4,62.0
24.41,75.0
24.42,73.0
24.43,69.0
24.44,78.0
24.45,107.0
24.46,55.0
24.47,75.0
24.48,84.0
24.49,73.0
24.5,64.0
24.51,70.0
24.52,64.0
24.53,71.0
24.54,65.0
24.55,80.0
24.56,76.0
24.57,85.0
24.58,73.0
24.59,74.0
24.6,80.0
24.61,78.0
24.62,81.0
24.63,71.0
24.64,87.0
24.65,65.0
24.66,98.0
24.67,97.0
24.68,104.0
24.69,101.0
24.7,68.0
24.71,91.0
24.72,93.0
24.73,83.0
24.74,76.0
24.75,83.0
24.76,92.0
24.77,106.0
24.78,86.0
24.79,85.0
24.8,78.0
24.81,88.0
24.82,76.0
24.83,60.0
24.84,88.0
24.85,89.0
24.86,77.0
24.87,81.0
24.88,79.0
24.89,68.0
24.9,75.0
24.91,77.0
24.92,76.0
24.93,62.0
24.94,58.0
24.95,67.0
24.96,77.0
24.97,72.0
24.98,82.0
24.99,75.0
25.0,77.0
25.01,79.0
25.02,72.0
25.03,88.0
25.04,70.0
25.05,78.0
25.06,91.0
25.07,70.0
25.08,62.0
25.09,71.0
25.1,74.0
25.11,74.0
25.12,77.0
25.13,87.0
25.14,70.0
25.15,84.0
25.16,82.0
25.17,77.0
25.18,67.0
25.19,69.0
25.2,88.0
25.21,63.0
25.22,78.0
25.23,61.0
25.24,62.0
25.25,74.0
25.26,81.0
25.27,67.0
25.28,66.0
25.29,59.0
25.3,78.0
25.31,78.0
25.32,83.0
25.33,83.0
25.34,66.0
25.35,72.0
25.36,74.0
25.37,81.0
25.38,74.0
25.39,81.0
25.4,80.0
25.41,70.0
25.42,72.0
25.43,80.0
25.44,78.0
25.45,77.0
25.46,79.0
25.47,75.0
25.48,79.0
25.49,75.0
25.5,97.0
25.51,61.0
25.52,84.0
25.53,64.0
25.54,78.0
25.55,76.0
25.56,81.0
25.57,78.0
25.58,83.0
25.59,67.0
25.6,80.0
25.61,95.0
25.62,64.0
25.63,92.0
25.64,71.0
25.65,71.0
25.66,81.0
25.67,86.0
25.68,97.0
25.69,76.0
25.7,78.0
25.71,88.0
25.72,76.0
25.73,62.0
25.74,79.0
25.75,90.0
25.76,70.0
25.77,95.0
25.78,99.0
25.79,114.0
25.8,108.0
25.81,94.0
25.82,98.0
25.83,82.0
25.84,89.0
25.85,91.0
25.86,98.0
25.87,77.0
25.88,99.0
25.89,72.0
25.9,79.0
25.91,87.0
25.92,68.0
25.93,75.0
25.94,84.0
25.95,80.0
25.96,85.0
25.97,78.0
25.98,61.0
25.99,100.0
26.0,67.0
26.01,69.0
26.02,69.0
26.03,71.0
26.04,96.0
26.05,85.0
26.06,71.0
26.07,94.0
26.08,78.0
26.09,86.0
26.1,82.0
26.11,74.0
26.12,85.0
26.13,80.0
26.14,68.0
26.15,61.0
26.16,86.0
26.17,88.0
26.18,87.0
26.19,74.0
26.2,83.0
26.21,71.0
26.22,72.0
26.23,72.0
26.24,90.0
26.25,81.0
26.26,52.0
26.27,90.0
26.28,61.0
26.29,77.0
26.3,64.0
26.31,73.0
26.32,84.0
26.33,73.0
26.34,72.0
26.35,76.0
26.36,74.0
26.37,79.0
26.38,77.0
26.39,83.0
26.4,78.0
26.41,76.0
26.42,68.0
26.43,67.0
26.44,71.0
26.45,86.0
26.46,66.0
26.47,77.0
26.48,87.0
26.49,84.0
26.5,85.0
26.51,77.0
26.52,73.0
26.53,57.0
26.54,71.0
26.55,86.0
26.56,79.0
26.57,74.0
26.58,65.0
26.59,81.0
26.6,60.0
26.61,72.0
26.62,85.0
26.63,72.0
26.64,78.0
26.65,80.0
26.66,77.0
26.67,68.0
26.68,78.0
26.69,61.0
26.7,76.0
26.71,65.0
26.72,61.0
26.73,64.0
26.74,75.0
26.75,72.0
26.76,59.0
26.77,59.0
26.78,61.0
26.79,74.0
26.8,73.0
26.81,83.0
26.82,74.0
26.83,99.0
26.84,79.0
26.85,80.0
26.86,84.0
26.87,70.0
26.88,80.0
26.89,74.0
26.9,61.0
26.91,91.0
26.92,79.0
26.93,69.0
26.94,74.0
26.95,83.0
26.96,86.0
26.97,65.0
26.98,72.0
26.99,78.0
27.0,96.0
27.01,78.0
27.02,69.0
27.03,77.0
27.04,81.0
27.05,72.0
27.06,77.0
27.07,77.0
27.08,72.0
27.09,65.0
27.1,73.0
27.11,69.0
27.12,92.0
27.13,82.0
27.14,88.0
27.15,94.0
27.16,94.0
27.17,83.0
27.18,93.0
27.19,103.0
27.2,125.0
27.21,117.0
27.22,132.0
27.23,125.0
27.24,142.0
27.25,137.0
27.26,113.0
27.27,132.0
27.28,113.0
27.29,101.0
27.3,95.0
27.31,110.0
27.32,110.0
27.33,110.0
27.34,78.0
27.35,99.0
27.36,95.0
27.37,75.0
27.38,87.0
27.39,79.0
27.4,76.0
27.41,78.0
27.42,90.0
27.43,86.0
27.44,72.0
27.45,82.0
27.46,66.0
27.47,91.0
27.48,53.0
27.49,88.0
27.5,83.0
27.51,90.0
27.52,64.0
27.53,69.0
27.54,65.0
27.55,91.0
27.56,80.0
27.57,86.0
27.58,74.0
27.59,74.0
27.6,84.0
27.61,67.0
27.62,75.0
27.63,90.0
27.64,72.0
27.65,65.0
27.66,73.0
27.67,74.0
27.68,87.0
27.69,78.0
27.7,86.0
27.71,80.0
27.72,81.0
27.73,72.0
27.74,72.0
27.75,83.0
27.76,68.0
27.77,76.0
27.78,83.0
27.79,79.0
27.8,80.0
27.81,91.0
27.82,79.0
27.83,83.0
27.84,79.0
27.85,72.0
27.86,67.0
27.87,74.0
27.88,64.0
27.89,60.0
27.9,83.0
27.91,75.0
27.92,81.0
27.93,70.0
27.94,80.0
27.95,83.0
27.96,73.0
27.97,66.0
27.98,75.0
27.99,77.0
28.0,79.0
28.01,78.0
28.02,74.0
28.03,70.0
28.04,69.0
28.05,63.0
28.06,61.0
28.07,66.0
28.08,84.0
28.09,78.0
28.1,70.0
28.11,76.0
28.12,76.0
28.13,73.0
28.14,68.0
28.15,74.0
28.16,82.0
28.17,80.0
28.18,62.0
28.19,86.0
28.2,77.0
28.21,84.0
28.22,64.0
28.23,92.0
28.24,77.0
28.25,70.0
28.26,76.0
28.27,81.0
28.28,72.0
28.29,88.0
28.3,67.0
28.31,85.0
28.32,85.0
28.33,70.0
28.34,73.0
28.35,74.0
28.36,79.0
28.37,76.0
28.38,71.0
28.39,78.0
28.4,80.0
28.41,72.0
28.42,84.0
28.43,80.0
28.44,70.0
28.45,80.0
28.46,77.0
28.47,72.0
28.48,77.0
28.49,87.0
28.5,79.0
28.51,88.0
28.52,76.0
28.53,76.0
28.54,80.0
28.55,79.0
28.56,80.0
28.57,61.0
28.58,89.0
28.59,73.0
28.6,84.0
28.61,63.0
28.62,86.0
28.63,77.0
28.64,76.0
28.65,75.0
28.66,84.0
28.67,82.0
28.68,84.0
28.69,86.0
28.7,72.0
28.71,82.0
28.72,90.0
28.73,68.0
28.74,103.0
28.75,79.0
28.76,86.0
28.77,94.0
28.78,74.0
28.79,98.0
28.8,75.0
28.81,97.0
28.82,96.0
28.83,105.0
28.84,101.0
28.85,107.0
28.86,125.0
28.87,136.0
28.88,142.0
28.89,185.0
28.9,201.0
28.91,193.0
28.92,252.0
28.93,235.0
28.94,243.0
28.95,269.0
28.96,210.0
28.97,199.0
28.98,183.0
28.99,187.0
29.0,186.0
29.01,190.0
29.02,159.0
29.03,150.0
29.04,136.0
29.05,106.0
29.06,94.0
29.07,89.0
29.08,78.0
29.09,75.0
29.1,94.0
29.11,71.0
29.12,87.0
29.13,97.0
29.14,74.0
29.15,95.0
29.16,85.0
29.17,77.0
29.18,88.0
29.19,74.0
29.2,91.0
29.21,89.0
29.22,84.0
29.23,87.0
29.24,88.0
29.25,64.0
29.26,85.0
29.27,85.0
29.28,64.0
29.29,86.0
29.3,63.0
29.31,82.0
29.32,83.0
29.33,86.0
29.34,95.0
29.35,83.0
29.36,73.0
29.37,86.0
29.38,85.0
29.39,67.0
29.4,95.0
29.41,67.0
29.42,88.0
29.43,91.0
29.44,81.0
29.45,77.0
29.46,77.0
29.47,90.0
29.48,80.0
29.49,87.0
29.5,88.0
29.51,105.0
29.52,83.0
29.53,73.0
29.54,78.0
29.55,87.0
29.56,94.0
29.57,72.0
29.58,96.0
29.59,100.0
29.6,85.0
29.61,114.0
29.62,101.0
29.63,99.0
29.64,91.0
29.65,109.0
29.66,99.0
29.67,114.0
29.68,116.0
29.69,126.0
29.7,101.0
29.71,118.0
29.72,137.0
29.73,125.0
29.74,134.0
29.75,133.0
29.76,117.0
29.77,141.0
29.78,131.0
29.79,123.0
29.8,119.0
29.81,110.0
29.82,141.0
29.83,130.0
29.84,139.0
29.85,126.0
29.86,123.0
29.87,103.0
29.88,106.0
29.89,106.0
29.9,94.0
29.91,95.0
29.92,91.0
29.93,91.0
29.94,102.0
29.95,93.0
29.96,82.0
29.97,72.0
29.98,75.0
29.99,75.0
30.0,90.0
30.01,97.0
30.02,89.0
30.03,95.0
30.04,74.0
30.05,76.0
30.06,83.0
30.07,99.0
30.08,91.0
30.09,70.0
30.1,67.0
30.11,75.0
30.12,75.0
30.13,74.0
30.14,92.0
30.15,77.0
30.16,77.0
30.17,90.0
30.18,85.0
30.19,99.0
30.2,84.0
30.21,74.0
30.22,80.0
30.23,74.0
30.24,73.0
30.25,68.0
30.26,88.0
30.27,64.0
30.28,75.0
30.29,63.0
30.3,98.0
30.31,62.0
30.32,69.0
30.33,73.0
30.34,59.0
30.35,84.0
30.36,81.0
30.37,79.0
30.38,73.0
30.39,87.0
30.4,81.0
30.41,67.0
30.42,70.0
30.43,63.0
30.44,86.0
30.45,83.0
30.46,90.0
30.47,68.0
30.48,61.0
30.49,67.0
30.5,64.0
30.51,78.0
30.52,78.0
30.53,75.0
30.54,77.0
30.55,70.0
30.56,75.0
30.57,75.0
30.58,86.0
30.59,62.0
30.6,86.0
30.61,58.0
30.62,80.0
30.63,72.0
30.64,67.0
30.65,91.0
30.66,76.0
30.67,88.0
30.68,77.0
30.69,71.0
30.7,76.0
30.71,72.0
30.72,79.0
30.73,75.0
30.74,76.0
30.75,77.0
30.76,80.0
30.77,74.0
30.78,71.0
30.79,78.0
30.8,65.0
30.81,73.0
30.82,66.0
30.83,50.0
30.84,85.0
30.85,72.0
30.86,70.0
30.87,72.0
30.88,85.0
30.89,85.0
30.9,77.0
30.91,80.0
30.92,75.0
30.93,76.0
30.94,69.0
30.95,79.0
30.96,77.0
30.97,76.0
30.98,73.0
30.99,70.0
31.0,62.0
31.01,87.0
31.02,67.0
31.03,63.0
31.04,80.0
31.05,73.0
31.06,71.0
31.07,93.0
31.08,62.0
31.09,76.0
31.1,71.0
31.11,62.0
31.12,95.0
31.13,72.0
31.14,62.0
31.15,62.0
31.16,65.0
31.17,76.0
31.18,62.0
31.19,89.0
31.2,83.0
31.21,53.0
31.22,91.0
31.23,84.0
31.24,85.0
31.25,74.0
31.26,79.0
31.27,73.0
31.28,80.0
31.29,82.0
31.3,71.0
31.31,74.0
31.32,67.0
31.33,81.0
31.34,70.0
31.35,81.0
31.36,66.0
31.37,86.0
31.38,63.0
31.39,81.0
31.4,65.0
31.41,66.0
31.42,78.0
31.43,68.0
31.44,64.0
31.45,79.0
31.46,62.0
31.47,80.0
31.48,72.0
31.49,84.0
31.5,81.0
31.51,84.0
31.52,68.0
31.53,60.0
31.54,73.0
31.55,78.0
31.56,89.0
31.57,80.0
31.58,65.0
31.59,65.0
31.6,78.0
31.61,74.0
31.62,67.0
31.63,70.0
31.64,74.0
31.65,81.0
31.66,83.0
31.67,70.0
31.68,78.0
31.69,69.0
31.7,66.0
31.71,77.0
31.72,77.0
31.73,67.0
31.74,76.0
31.75,81.0
31.76,83.0
31.77,77.0
31.78,71.0
31.79,86.0
31.8,73.0
31.81,74.0
31.82,84.0
31.83,72.0
31.84,71.0
31.85,77.0
31.86,65.0
31.87,89.0
31.88,74.0
31.89,62.0
31.9,82.0
31.91,76.0
31.92,84.0
31.93,82.0
31.94,86.0
31.95,75.0
31.96,73.0
31.97,84.0
31.98,70.0
31.99,81.0
32.0,72.0
32.01,83.0
32.02,86.0
32.03,83.0
32.04,69.0
32.05,65.0
32.06,72.0
32.07,81.0
32.08,84.0
32.09,89.0
32.1,89.0
32.11,94.0
32.12,87.0
32.13,109.0
32.14,114.0
32.15,111.0
32.16,91.0
32.17,96.0
32.18,93.0
32.19,78.0
32.2,82.0
32.21,84.0
32.22,90.0
32.23,89.0
32.24,89.0
32.25,90.0
32.26,88.0
32.27,84.0
32.28,105.0
32.29,98.0
32.3,81.0
32.31,68.0
32.32,84.0
32.33,84.0
32.34,77.0
32.35,81.0
32.36,87.0
32.37,76.0
32.38,78.0
32.39,98.0
32.4,96.0
32.41,95.0
32.42,110.0
32.43,102.0
32.44,112.0
32.45,109.0
32.46,104.0
32.47,125.0
32.48,127.0
32.49,146.0
32.5,150.0
32.51,154.0
32.52,142.0
32.53,121.0
32.54,141.0
32.55,107.0
32.56,109.0
32.57,106.0
32.58,127.0
32.59,131.0
32.6,122.0
32.61,96.0
32.62,105.0
32.63,88.0
32.64,80.0
32.65,102.0
32.66,92.0
32.67,98.0
32.68,90.0
32.69,87.0
32.7,95.0
32.71,90.0
32.72,72.0
32.73,84.0
32.74,86.0
32.75,84.0
32.76,66.0
32.77,83.0
32.78,82.0
32.79,84.0
32.8,89.0
32.81,63.0
32.82,79.0
32.83,88.0
32.84,89.0
32.85,69.0
32.86,96.0
32.87,83.0
32.88,76.0
32.89,89.0
32.9,64.0
32.91,82.0
32.92,92.0
32.93,90.0
32.94,70.0
32.95,58.0
32.96,97.0
32.97,68.0
32.98,80.0
32.99,72.0
33.0,83.0
33.01,86.0
33.02,84.0
33.03,84.0
33.04,84.0
33.05,80.0
33.06,72.0
33.07,62.0
33.08,80.0
33.09,68.0
33.1,83.0
33.11,72.0
33.12,72.0
33.13,82.0
33.14,74.0
33.15,53.0
33.16,81.0
33.17,92.0
33.18,73.0
33.19,87.0
33.2,81.0
33.21,63.0
33.22,85.0
33.23,94.0
33.24,74.0
33.25,66.0
33.26,69.0
33.27,77.0
33.28,73.0
33.29,82.0
33.3,79.0
33.31,76.0
33.32,75.0
33.33,90.0
33.34,79.0
33.35,84.0
33.36,78.0
33.37,84.0
33.38,74.0
33.39,78.0
33.4,72.0
33.41,67.0
33.42,79.0
33.43,68.0
33.44,65.0
33.45,92.0
33.46,91.0
33.47,82.0
33.48,87.0
33.49,90.0
33.5,94.0
33.51,71.0
33.52,85.0
33.53,74.0
33.54,92.0
33.55,81.0
33.56,80.0
33.57,97.0
33.58,68.0
33.59,87.0
33.6,91.0
33.61,71.0
33.62,70.0
33.63,83.0
33.64,89.0
33.65,74.0
33.66,88.0
33.67,80.0
33.68,85.0
33.69,96.0
33.7,70.0
33.71,89.0
33.72,75.0
33.73,64.0
33.74,79.0
33.75,78.0
33.76,75.0
33.77,79.0
33.78,62.0
33.79,74.0
33.8,82.0
33.81,67.0
33.82,71.0
33.83,85.0
33.84,93.0
33.85,71.0
33.86,86.0
33.87,83.0
33.88,77.0
33.89,85.0
33.9,89.0
33.91,63.0
33.92,78.0
33.93,76.0
33.94,89.0
33.95,58.0
33.96,81.0
33.97,68.0
33.98,90.0
33.99,56.0
34.0,72.0
34.01,75.0
34.02,82.0
34.03,90.0
34.04,88.0
34.05,86.0
34.06,92.0
34.07,100.0
34.08,91.0
34.09,91.0
34.1,115.0
34.11,96.0
34.12,108.0
34.13,107.0
34.14,110.0
34.15,92.0
34.16,98.0
34.17,76.0
34.18,97.0
34.19,98.0
34.2,79.0
34.21,95.0
34.22,113.0
34.23,108.0
34.24,91.0
34.25,76.0
34.26,86.0
34.27,79.0
34.28,87.0
34.29,74.0
34.3,85.0
34.31,79.0
34.32,86.0
34.33,81.0
34.34,89.0
34.35,60.0
34.36,77.0
34.37,86.0
34.38,71.0
34.39,78.0
34.4,77.0
34.41,75.0
34.42,87.0
34.43,88.0
34.44,90.0
34.45,74.0
34.46,86.0
34.47,68.0
34.48,77.0
34.49,60.0
34.5,74.0
34.51,78.0
34.52,102.0
34.53,87.0
34.54,68.0
34.55,63.0
34.56,80.0
34.57,70.0
34.58,71.0
34.59,73.0
34.6,80.0
34.61,69.0
34.62,80.0
34.63,81.0
34.64,91.0
34.65,60.0
34.66,66.0
34.67,70.0
34.68,72.0
34.69,60.0
34.7,76.0
34.71,74.0
34.72,91.0
34.73,87.0
34.74,84.0
34.75,72.0
34.76,73.0
34.77,89.0
34.78,78.0
34.79,66.0
34.8,61.0
34.81,75.0
34.82,69.0
34.83,76.0
34.84,54.0
34.85,76.0
34.86,84.0
34.87,74.0
34.88,76.0
34.89,77.0
34.9,85.0
34.91,81.0
34.92,70.0
34.93,69.0
34.94,70.0
34.95,59.0
34.96,65.0
34.97,78.0
34.98,86.0
34.99,73.0
35.0,82.0
35.01,78.0
35.02,76.0
35.03,63.0
35.04,85.0
35.05,78.0
35.06,68.0
35.07,80.0
35.08,97.0
35.09,74.0
35.1,70.0
35.11,90.0
35.12,72.0
35.13,79.0
35.14,72.0
35.15,77.0
35.16,86.0
35.17,77.0
35.18,74.0
35.19,70.0
35.2,77.0
35.21,81.0
35.22,91.0
35.23,74.0
35.24,71.0
35.25,72.0
35.26,73.0
35.27,82.0
35.28,65.0
35.29,81.0
35.3,100.0
35.31,86.0
35.32,77.0
35.33,76.0
35.34,80.0
35.35,91.0
35.36,76.0
35.37,70.0
35.38,69.0
35.39,71.0
35.4,76.0
35.41,87.0
35.42,83.0
35.43,71.0
35.44,74.0
35.45,52.0
35.46,67.0
35.47,77.0
35.48,90.0
35.49,77.0
35.5,70.0
35.51,77.0
35.52,73.0
35.53,67.0
35.54,82.0
35.55,81.0
35.56,88.0
35.57,95.0
35.58,95.0
35.59,87.0
35.6,81.0
35.61,72.0
35.62,96.0
35.63,89.0
35.64,98.0
35.65,91.0
35.66,102.0
35.67,82.0
35.68,108.0
35.69,107.0
35.7,118.0
35.71,89.0
35.72,94.0
35.73,75.0
35.74,98.0
35.75,100.0
35.76,98.0
35.77,79.0
35.78,91.0
35.79,80.0
35.8,69.0
35.81,95.0
35.82,105.0
35.83,63.0
35.84,63.0
35.85,68.0
35.86,92.0
35.87,74.0
35.88,73.0
35.89,68.0
35.9,87.0
35.91,68.0
35.92,76.0
35.93,82.0
35.94,85.0
35.95,75.0
35.96,74.0
35.97,80.0
35.98,68.0
35.99,73.0
36.0,99.0
36.01,74.0
36.02,80.0
36.03,76.0
36.04,71.0
36.05,71.0
36.06,70.0
36.07,76.0
36.08,90.0
36.09,72.0
36.1,63.0
36.11,77.0
36.12,89.0
36.13,77.0
36.14,82.0
36.15,86.0
36.16,74.0
36.17,92.0
36.18,101.0
36.19,81.0
36.2,85.0
36.21,92.0
36.22,94.0
36.23,88.0
36.24,80.0
36.25,70.0
36.26,73.0
36.27,103.0
36.28,87.0
36.29,95.0
36.3,76.0
36.31,92.0
36.32,73.0
36.33,88.0
36.34,89.0
36.35,81.0
36.36,80.0
36.37,95.0
36.38,89.0
36.39,82.0
36.4,85.0
36.41,96.0
36.42,87.0
36.43,71.0
36.44,72.0
36.45,81.0
36.46,82.0
36.47,84.0
36.48,74.0
36.49,76.0
36.5,83.0
36.51,79.0
36.52,87.0
36.53,80.0
36.54,80.0
36.55,72.0
36.56,63.0
36.57,66.0
36.58,87.0
36.59,69.0
36.6,72.0
36.61,78.0
36.62,69.0
36.63,82.0
36.64,66.0
36.65,67.0
36.66,71.0
36.67,94.0
36.68,76.0
36.69,77.0
36.7,83.0
36.71,81.0
36.72,66.0
36.73,78.0
36.74,79.0
36.75,81.0
36.76,78.0
36.77,67.0
36.78,71.0
36.79,56.0
36.8,73.0
36.81,80.0
36.82,72.0
36.83,77.0
36.84,88.0
36.85,81.0
36.86,60.0
36.87,77.0
36.88,80.0
36.89,68.0
36.9,87.0
36.91,59.0
36.92,62.0
36.93,91.0
36.94,77.0
36.95,77.0
36.96,72.0
36.97,66.0
36.98,79.0
36.99,79.0
37.0,82.0
37.01,82.0
37.02,74.0
37.03,68.0
37.04,75.0
37.05,79.0
37.06,81.0
37.07,77.0
37.08,73.0
37.09,82.0
37.1,87.0
37.11,74.0
37.12,60.0
37.13,61.0
37.14,61.0
37.15,71.0
37.16,69.0
37.17,90.0
37.18,86.0
37.19,67.0
37.2,75.0
37.21,85.0
37.22,86.0
37.23,81.0
37.24,56.0
37.25,76.0
37.26,84.0
37.27,81.0
37.28,79.0
37.29,76.0
37.3,88.0
37.31,95.0
37.32,90.0
37.33,76.0
37.34,82.0
37.35,81.0
37.36,74.0
37.37,80.0
37.38,83.0
37.39,70.0
37.4,79.0
37.41,80.0
37.42,103.0
37.43,78.0
37.44,62.0
37.45,69.0
37.46,80.0
37.47,86.0
37.48,84.0
37.49,78.0
37.5,84.0
37.51,67.0
37.52,69.0
37.53,65.0
37.54,87.0
37.55,74.0
37.56,59.0
37.57,79.0
37.58,73.0
37.59,65.0
37.6,76.0
37.61,77.0
37.62,64.0
37.63,65.0
37.64,85.0
37.65,81.0
37.66,80.0
37.67,93.0
37.68,74.0
37.69,59.0
37.7,73.0
37.71,81.0
37.72,72.0
37.73,72.0
37.74,81.0
37.75,78.0
37.76,79.0
37.77,65.0
37.78,69.0
37.79,86.0
37.8,62.0
37.81,75.0
37.82,79.0
37.83,83.0
37.84,84.0
37.85,75.0
37.86,84.0
37.87,71.0
37.88,77.0
37.89,84.0
37.9,78.0
37.91,59.0
37.92,92.0
37.93,67.0
37.94,67.0
37.95,79.0
37.96,87.0
37.97,70.0
37.98,84.0
37.99,69.0
38.0,66.0
38.01,66.0
38.02,79.0
38.03,89.0
38.04,87.0
38.05,72.0
38.06,69.0
38.07,79.0
38.08,86.0
38.09,73.0
38.1,79.0
38.11,67.0
38.12,75.0
38.13,95.0
38.14,94.0
38.15,77.0
38.16,77.0
38.17,77.0
38.18,85.0
38.19,66.0
38.2,66.0
38.21,64.0
38.22,80.0
38.23,79.0
38.24,66.0
38.25,78.0
38.26,73.0
38.27,76.0
38.28,83.0
38.29,75.0
38.3,90.0
38.31,78.0
38.32,71.0
38.33,64.0
38.34,80.0
38.35,90.0
38.36,83.0
38.37,76.0
38.38,82.0
38.39,89.0
38.4,66.0
38.41,58.0
38.42,69.0
38.43,74.0
38.44,75.0
38.45,77.0
38.46,74.0
38.47,66.0
38.48,67.0
38.49,71.0
38.5,74.0
38.51,96.0
38.52,81.0
38.53,73.0
38.54,53.0
38.55,75.0
38.56,72.0
38.57,82.0
38.58,76.0
38.59,57.0
38.6,70.0
38.61,88.0
38.62,83.0
38.63,91.0
38.64,72.0
38.65,59.0
38.66,66.0
38.67,71.0
38.68,80.0
38.69,67.0
38.7,82.0
38.71,80.0
38.72,50.0
38.73,89.0
38.74,69.0
38.75,74.0
38.76,77.0
38.77,65.0
38.78,76.0
38.79,80.0
38.8,79.0
38.81,75.0
38.82,73.0
38.83,88.0
38.84,90.0
38.85,85.0
38.86,84.0
38.87,90.0
38.88,98.0
38.89,65.0
38.9,108.0
38.91,72.0
38.92,89.0
38.93,62.0
38.94,84.0
38.95,76.0
38.96,82.0
38.97,89.0
38.98,103.0
38.99,94.0
39.0,104.0
39.01,96.0
39.02,110.0
39.03,104.0
39.04,90.0
39.05,94.0
39.06,113.0
39.07,87.0
39.08,89.0
39.09,101.0
39.1,83.0
39.11,88.0
39.12,77.0
39.13,90.0
39.14,92.0
39.15,66.0
39.16,72.0
39.17,84.0
39.18,62.0
39.19,82.0
39.2,60.0
39.21,64.0
39.22,65.0
39.23,80.0
39.24,72.0
39.25,69.0
39.26,81.0
39.27,75.0
39.28,71.0
39.29,75.0
39.3,81.0
39.31,68.0
39.32,78.0
39.33,83.0
39.34,81.0
39.35,65.0
39.36,77.0
39.37,74.0
39.38,82.0
39.39,92.0
39.4,58.0
39.41,70.0
39.42,82.0
39.43,77.0
39.44,88.0
39.45,82.0
39.46,87.0
39.47,74.0
39.48,71.0
39.49,79.0
39.5,78.0
39.51,78.0
39.52,69.0
39.53,79.0
39.54,67.0
39.55,78.0
39.56,67.0
39.57,75.0
39.58,72.0
39.59,67.0
39.6,94.0
39.61,69.0
39.62,79.0
39.63,80.0
39.64,103.0
39.65,107.0
39.66,73.0
39.67,88.0
39.68,100.0
39.69,83.0
39.7,68.0
39.71,69.0
39.72,79.0
39.73,74.0
39.74,86.0
39.75,97.0
39.76,91.0
39.77,97.0
39.78,74.0
39.79,89.0
39.8,96.0
39.81,87.0
39.82,89.0
39.83,88.0
39.84,78.0
39.85,93.0
39.86,104.0
39.87,80.0
39.88,88.0
39.89,81.0
39.9,93.0
39.91,83.0
39.92,82.0
39.93,92.0
39.94,81.0
39.95,81.0
39.96,83.0
39.97,90.0
39.98,86.0
39.99,76.0
40.0,83.0
40.01,80.0
40.02,91.0
40.03,71.0
40.04,84.0
40.05,82.0
40.06,81.0
40.07,89.0
40.08,72.0
40.09,84.0
40.1,79.0
40.11,81.0
40.12,81.0
40.13,80.0
40.14,81.0
40.15,65.0
40.16,72.0
40.17,87.0
40.18,71.0
40.19,71.0
40.2,104.0
40.21,72.0
40.22,78.0
40.23,72.0
40.24,81.0
40.25,77.0
40.26,88.0
40.27,86.0
40.28,83.0
40.29,67.0
40.3,75.0
40.31,91.0
40.32,91.0
40.33,72.0
40.34,93.0
40.35,71.0
40.36,85.0
40.37,81.0
40.38,89.0
40.39,73.0
40.4,84.0
40.41,81.0
40.42,76.0
40.43,73.0
40.44,77.0
40.45,93.0
40.46,74.0
40.47,71.0
40.48,69.0
40.49,77.0
40.5,73.0
40.51,75.0
40.52,85.0
40.53,79.0
40.54,68.0
40.55,92.0
40.56,79.0
40.57,82.0
40.58,84.0
40.59,85.0
40.6,76.0
40.61,91.0
40.62,62.0
40.63,74.0
40.64,81.0
40.65,84.0
40.66,85.0
40.67,81.0
40.68,81.0
40.69,82.0
40.7,86.0
40.71,76.0
40.72,96.0
40.73,70.0
40.74,84.0
40.75,65.0
40.76,75.0
40.77,98.0
40.78,87.0
40.79,75.0
40.8,84.0
40.81,84.0
40.82,71.0
40.83,84.0
40.84,90.0
40.85,84.0
40.86,87.0
40.87,78.0
40.88,95.0
40.89,85.0
40.9,91.0
40.91,88.0
40.92,64.0
40.93,87.0
40.94,92.0
40.95,72.0
40.96,82.0
40.97,72.0
40.98,76.0
40.99,76.0
41.0,88.0
41.01,85.0
41.02,95.0
41.03,83.0
41.04,88.0
41.05,86.0
41.06,105.0
41.07,100.0
41.08,105.0
41.09,114.0
41.1,123.0
41.11,100.0
41.12,94.0
41.13,105.0
41.14,104.0
41.15,92.0
41.16,107.0
41.17,94.0
41.18,90.0
41.19,86.0
41.2,86.0
41.21,93.0
41.22,94.0
41.23,83.0
41.24,89.0
41.25,86.0
41.26,77.0
41.27,76.0
41.28,86.0
41.29,74.0
41.3,76.0
41.31,84.0
41.32,82.0
41.33,83.0
41.34,76.0
41.35,84.0
41.36,77.0
41.37,81.0
41.38,84.0
41.39,59.0
41.4,66.0
41.41,85.0
41.42,76.0
41.43,80.0
41.44,79.0
41.45,70.0
41.46,74.0
41.47,62.0
41.48,80.0
41.49,69.0
41.5,77.0
41.51,98.0
41.52,79.0
41.53,71.0
41.54,74.0
41.55,68.0
41.56,64.0
41.57,97.0
41.58,81.0
41.59,85.0
41.6,82.0
41.61,81.0
41.62,84.0
41.63,87.0
41.64,68.0
41.65,61.0
41.66,75.0
41.67,75.0
41.68,88.0
41.69,80.0
41.7,64.0
41.71,87.0
41.72,71.0
41.73,54.0
41.74,70.0
41.75,79.0
41.76,75.0
41.77,76.0
41.78,60.0
41.79,78.0
41.8,72.0
41.81,69.0
41.82,76.0
41.83,74.0
41.84,75.0
41.85,81.0
41.86,76.0
41.87,76.0
41.88,80.0
41.89,86.0
41.9,71.0
41.91,57.0
41.92,76.0
41.93,76.0
41.94,88.0
41.95,65.0
41.96,92.0
41.97,81.0
41.98,77.0
41.99,63.0
42.0,73.0
42.01,71.0
42.02,57.0
42.03,83.0
42.04,75.0
42.05,79.0
42.06,75.0
42.07,71.0
42.08,77.0
42.09,71.0
42.1,74.0
42.11,69.0
42.12,73.0
42.13,69.0
42.14,69.0
42.15,72.0
42.16,82.0
42.17,59.0
42.18,68.0
42.19,92.0
42.2,80.0
42.21,80.0
42.22,84.0
42.23,81.0
42.24,79.0
42.25,64.0
42.26,69.0
42.27,74.0
42.28,82.0
42.29,57.0
42.3,78.0
42.31,79.0
42.32,73.0
42.33,69.0
42.34,75.0
42.35,78.0
42.36,74.0
42.37,68.0
42.38,73.0
42.39,63.0
42.4,75.0
42.41,73.0
42.42,72.0
42.43,100.0
42.44,68.0
42.45,76.0
42.46,77.0
42.47,87.0
42.48,85.0
42.49,73.0
42.5,72.0
42.51,78.0
42.52,76.0
42.53,72.0
42.54,82.0
42.55,79.0
42.56,77.0
42.57,76.0
42.58,81.0
42.59,67.0
42.6,80.0
42.61,64.0
42.62,97.0
42.63,69.0
42.64,77.0
42.65,74.0
42.66,83.0
42.67,76.0
42.68,66.0
42.69,69.0
42.7,79.0
42.71,85.0
42.72,87.0
42.73,67.0
42.74,68.0
42.75,70.0
42.76,58.0
42.77,59.0
42.78,75.0
42.79,70.0
42.8,81.0
42.81,76.0
42.82,64.0
42.83,76.0
42.84,91.0
42.85,71.0
42.86,73.0
42.87,82.0
42.88,67.0
42.89,88.0
42.9,65.0
42.91,70.0
42.92,66.0
42.93,77.0
42.94,97.0
42.95,87.0
42.96,90.0
42.97,84.0
42.98,84.0
42.99,76.0
43.0,71.0
43.01,88.0
43.02,71.0
43.03,67.0
43.04,91.0
43.05,77.0
43.06,79.0
43.07,96.0
43.08,73.0
43.09,100.0
43.1,79.0
43.11,71.0
43.12,90.0
43.13,60.0
43.14,85.0
43.15,76.0
43.16,72.0
43.17,55.0
43.18,88.0
43.19,82.0
43.2,77.0
43.21,85.0
43.22,82.0
43.23,84.0
43.24,95.0
43.25,82.0
43.26,69.0
43.27,100.0
43.28,94.0
43.29,80.0
43.3,80.0
43.31,79.0
43.32,70.0
43.33,87.0
43.34,67.0
43.35,78.0
43.36,81.0
43.37,81.0
43.38,74.0
43.39,71.0
43.4,71.0
43.41,73.0
43.42,76.0
43.43,77.0
43.44,89.0
43.45,87.0
43.46,92.0
43.47,77.0
43.48,86.0
43.49,85.0
43.5,92.0
43.51,85.0
43.52,70.0
43.53,89.0
43.54,78.0
43.55,87.0
43.56,67.0
43.57,101.0
43.58,90.0
43.59,80.0
43.6,73.0
43.61,83.0
43.62,75.0
43.63,68.0
43.64,67.0
43.65,89.0
43.66,97.0
43.67,86.0
43.68,87.0
43.69,80.0
43.7,96.0
43.71,88.0
43.72,78.0
43.73,76.0
43.74,83.0
43.75,99.0
43.76,80.0
43.77,73.0
43.78,87.0
43.79,67.0
43.8,83.0
43.81,77.0
43.82,78.0
43.83,71.0
43.84,79.0
43.85,78.0
43.86,89.0
43.87,66.0
43.88,87.0
43.89,77.0
43.9,74.0
43.91,76.0
43.92,89.0
43.93,77.0
43.94,66.0
43.95,79.0
43.96,69.0
43.97,97.0
43.98,67.0
43.99,72.0
44.0,82.0
44.01,71.0
44.02,72.0
44.03,65.0
44.04,82.0
44.05,80.0
44.06,95.0
44.07,70.0
44.08,61.0
44.09,74.0
44.1,81.0
44.11,74.0
44.12,100.0
44.13,90.0
44.14,70.0
44.15,75.0
44.16,84.0
44.17,90.0
44.18,74.0
44.19,93.0
44.2,82.0
44.21,82.0
44.22,73.0
44.23,88.0
44.24,91.0
44.25,88.0
44.26,72.0
44.27,89.0
44.28,70.0
44.29,75.0
44.3,98.0
44.31,89.0
44.32,89.0
44.33,71.0
44.34,90.0
44.35,92.0
44.36,92.0
44.37,91.0
44.38,79.0
44.39,68.0
44.4,78.0
44.41,91.0
44.42,77.0
44.43,93.0
44.44,94.0
44.45,91.0
44.46,90.0
44.47,99.0
44.48,82.0
44.49,78.0
44.5,79.0
44.51,75.0
44.52,70.0
44.53,83.0
44.54,81.0
44.55,85.0
44.56,66.0
44.57,71.0
44.58,94.0
44.59,69.0
44.6,80.0
44.61,73.0
44.62,82.0
44.63,70.0
44.64,75.0
44.65,80.0
44.66,69.0
44.67,84.0
44.68,86.0
44.69,82.0
44.7,76.0
44.71,70.0
44.72,95.0
44.73,85.0
44.74,71.0
44.75,90.0
44.76,75.0
44.77,75.0
44.78,89.0
44.79,75.0
44.8,72.0
44.81,69.0
44.82,78.0
44.83,81.0
44.84,89.0
44.85,77.0
44.86,98.0
44.87,84.0
44.88,78.0
44.89,76.0
44.9,65.0
44.91,81.0
44.92,83.0
44.93,79.0
44.94,77.0
44.95,79.0
44.96,71.0
44.97,70.0
44.98,67.0
44.99,80.0
45.0,71.0
45.01,61.0
45.02,69.0
45.03,73.0
45.04,78.0
45.05,71.0
45.06,82.0
45.07,69.0
45.08,80.0
45.09,73.0
45.1,76.0
45.11,87.0
45.12,81.0
45.13,65.0
45.14,75.0
45.15,80.0
45.16,79.0
45.17,80.0
45.18,82.0
45.19,72.0
45.2,74.0
45.21,85.0
45.22,79.0
45.23,70.0
45.24,83.0
45.25,65.0
45.26,58.0
45.27,66.0
45.28,81.0
45.29,71.0
45.3,72.0
45.31,81.0
45.32,81.0
45.33,84.0
45.34,72.0
45.35,79.0
45.36,72.0
45.37,74.0
45.38,96.0
45.39,72.0
45.4,88.0
45.41,83.0
45.42,70.0
45.43,70.0
45.44,82.0
45.45,69.0
45.46,85.0
45.47,70.0
45.48,91.0
45.49,72.0
45.5,80.0
45.51,75.0
45.52,77.0
45.53,75.0
45.54,79.0
45.55,66.0
45.56,62.0
45.57,74.0
45.58,71.0
45.59,68.0
45.6,68.0
45.61,79.0
45.62,79.0
45.63,74.0
45.64,104.0
45.65,64.0
45.66,82.0
45.67,75.0
45.68,79.0
45.69,81.0
45.7,72.0
45.71,85.0
45.72,89.0
45.73,85.0
45.74,68.0
45.75,83.0
45.76,75.0
45.77,60.0
45.78,70.0
45.79,77.0
45.8,88.0
45.81,87.0
45.82,72.0
45.83,68.0
45.84,62.0
45.85,87.0
45.86,74.0
45.87,63.0
45.88,57.0
45.89,62.0
45.9,69.0
45.91,74.0
45.92,74.0
45.93,69.0
45.94,70.0
45.95,74.0
45.96,76.0
45.97,74.0
45.98,75.0
45.99,71.0
46.0,66.0
46.01,73.0
46.02,92.0
46.03,75.0
46.04,89.0
46.05,77.0
46.06,66.0
46.07,67.0
46.08,79.0
46.09,71.0
46.1,84.0
46.11,73.0
46.12,84.0
46.13,67.0
46.14,76.0
46.15,80.0
46.16,74.0
46.17,63.0
46.18,80.0
46.19,73.0
46.2,76.0
46.21,84.0
46.22,82.0
46.23,81.0
46.24,95.0
46.25,80.0
46.26,83.0
46.27,95.0
46.28,84.0
46.29,88.0
46.3,93.0
46.31,79.0
46.32,68.0
46.33,66.0
46.34,78.0
46.35,72.0
46.36,91.0
46.37,94.0
46.38,85.0
46.39,74.0
46.4,79.0
46.41,89.0
46.42,62.0
46.43,65.0
46.44,91.0
46.45,82.0
46.46,78.0
46.47,77.0
46.48,71.0
46.49,81.0
46.5,73.0
46.51,78.0
46.52,72.0
46.53,76.0
46.54,73.0
46.55,87.0
46.56,84.0
46.57,62.0
46.58,66.0
46.59,59.0
46.6,69.0
46.61,66.0
46.62,86.0
46.63,67.0
46.64,87.0
46.65,70.0
46.66,94.0
46.67,76.0
46.68,67.0
46.69,79.0
46.7,76.0
46.71,78.0
46.72,83.0
46.73,98.0
46.74,87.0
46.75,92.0
46.76,68.0
46.77,97.0
46.78,69.0
46.79,63.0
46.8,68.0
46.81,77.0
46.82,88.0
46.83,70.0
46.84,71.0
46.85,62.0
46.86,71.0
46.87,75.0
46.88,74.0
46.89,80.0
46.9,76.0
46.91,83.0
46.92,61.0
46.93,63.0
46.94,64.0
46.95,67.0
46.96,79.0
46.97,83.0
46.98,69.0
46.99,84.0
47.0,74.0
47.01,71.0
47.02,57.0
47.03,70.0
47.04,82.0
47.05,72.0
47.06,77.0
47.07,81.0
47.08,69.0
47.09,67.0
47.1,77.0
47.11,72.0
47.12,74.0
47.13,81.0
47.14,56.0
47.15,71.0
47.16,71.0
47.17,66.0
47.18,73.0
47.19,76.0
47.2,89.0
47.21,62.0
47.22,61.0
47.23,80.0
47.24,79.0
47.25,68.0
47.26,72.0
47.27,71.0
47.28,91.0
47.29,68.0
47.3,82.0
47.31,66.0
47.32,71.0
47.33,79.0
47.34,80.0
47.35,81.0
47.36,85.0
47.37,70.0
47.38,84.0
47.39,73.0
47.4,96.0
47.41,71.0
47.42,80.0
47.43,81.0
47.44,67.0
47.45,82.0
47.46,81.0
47.47,81.0
47.48,82.0
47.49,81.0
47.5,76.0
47.51,83.0
47.52,81.0
47.53,84.0
47.54,84.0
47.55,75.0
47.56,65.0
47.57,76.0
47.58,70.0
47.59,67.0
47.6,75.0
47.61,73.0
47.62,80.0
47.63,75.0
47.64,81.0
47.65,82.0
47.66,88.0
47.67,99.0
47.68,77.0
47.69,88.0
47.7,65.0
47.71,79.0
47.72,86.0
47.73,63.0
47.74,79.0
47.75,64.0
47.76,70.0
47.77,66.0
47.78,68.0
47.79,65.0
47.8,66.0
47.81,86.0
47.82,75.0
47.83,84.0
47.84,65.0
47.85,66.0
47.86,71.0
47.87,64.0
47.88,60.0
47.89,68.0
47.9,61.0
47.91,86.0
47.92,61.0
47.93,78.0
47.94,66.0
47.95,89.0
47.96,70.0
47.97,85.0
47.98,90.0
47.99,93.0
48.0,65.0
48.01,78.0
48.02,87.0
48.03,92.0
48.04,72.0
48.05,73.0
48.06,86.0
48.07,73.0
48.08,75.0
48.09,73.0
48.1,104.0
48.11,78.0
48.12,91.0
48.13,89.0
48.14,104.0
48.15,90.0
48.16,82.0
48.17,69.0
48.18,75.0
48.19,73.0
48.2,77.0
48.21,74.0
48.22,77.0
48.23,89.0
48.24,82.0
48.25,72.0
48.26,74.0
48.27,80.0
48.28,79.0
48.29,85.0
48.3,78.0
48.31,75.0
48.32,80.0
48.33,68.0
48.34,83.0
48.35,85.0
48.36,78.0
48.37,79.0
48.38,84.0
48.39,80.0
48.4,71.0
48.41,77.0
48.42,84.0
48.43,80.0
48.44,72.0
48.45,75.0
48.46,83.0
48.47,75.0
48.48,70.0
48.49,75.0
48.5,83.0
48.51,91.0
48.52,78.0
48.53,72.0
48.54,82.0
48.55,89.0
48.56,86.0
48.57,64.0
48.58,79.0
48.59,75.0
48.6,79.0
48.61,61.0
48.62,79.0
48.63,82.0
48.64,86.0
48.65,90.0
48.66,67.0
48.67,88.0
48.68,81.0
48.69,71.0
48.7,72.0
48.71,65.0
48.72,74.0
48.73,74.0
48.74,65.0
48.75,95.0
48.76,84.0
48.77,91.0
48.78,84.0
48.79,64.0
48.8,75.0
48.81,78.0
48.82,99.0
48.83,87.0
48.84,74.0
48.85,88.0
48.86,73.0
48.87,72.0
48.88,69.0
48.89,77.0
48.9,86.0
48.91,69.0
48.92,64.0
48.93,85.0
48.94,69.0
48.95,75.0
48.96,93.0
48.97,106.0
48.98,65.0
48.99,74.0
49.0,77.0
49.01,87.0
49.02,92.0
49.03,89.0
49.04,81.0
49.05,84.0
49.06,80.0
49.07,65.0
49.08,87.0
49.09,79.0
49.1,75.0
49.11,99.0
49.12,64.0
49.13,90.0
49.14,82.0
49.15,80.0
49.16,68.0
49.17,73.0
49.18,92.0
49.19,85.0
49.2,88.0
49.21,91.0
49.22,95.0
49.23,75.0
49.24,76.0
49.25,83.0
49.26,74.0
49.27,79.0
49.28,88.0
49.29,62.0
49.3,82.0
49.31,88.0
49.32,74.0
49.33,84.0
49.34,79.0
49.35,66.0
49.36,74.0
49.37,67.0
49.38,70.0
49.39,77.0
49.4,79.0
49.41,71.0
49.42,82.0
49.43,70.0
49.44,67.0
49.45,83.0
49.46,84.0
49.47,65.0
49.48,79.0
49.49,70.0
49.5,67.0
49.51,81.0
49.52,78.0
49.53,70.0
49.54,79.0
49.55,84.0
49.56,83.0
49.57,62.0
49.58,79.0
49.59,79.0
49.6,73.0
49.61,68.0
49.62,77.0
49.63,70.0
49.64,72.0
49.65,76.0
49.66,76.0
49.67,67.0
49.68,75.0
49.69,72.0
49.7,84.0
49.71,85.0
49.72,73.0
49.73,66.0
49.74,85.0
49.75,80.0
49.76,76.0
49.77,85.0
49.78,78.0
49.79,70.0
49.8,62.0
49.81,94.0
49.82,71.0
49.83,72.0
49.84,86.0
49.85,82.0
49.86,78.0
49.87,72.0
49.88,75.0
49.89,75.0
49.9,83.0
49.91,57.0
49.92,59.0
49.93,74.0
49.94,87.0
49.95,76.0
49.96,66.0
49.97,64.0
49.98,75.0
49.99,84.0
50.0,76.0
50.01,75.0
50.02,74.0
50.03,95.0
50.04,80.0
50.05,71.0
50.06,65.0
50.07,63.0
50.08,96.0
50.09,67.0
50.1,82.0
50.11,73.0
50.12,92.0
50.13,65.0
50.14,90.0
50.15,68.0
50.16,68.0
50.17,97.0
50.18,65.0
50.19,67.0
50.2,71.0
50.21,70.0
50.22,77.0
50.23,68.0
50.24,69.0
50.25,79.0
50.26,57.0
50.27,64.0
50.28,81.0
50.29,89.0
50.3,70.0
50.31,90.0
50.32,73.0
50.33,69.0
50.34,59.0
50.35,83.0
50.36,66.0
50.37,75.0
50.38,70.0
50.39,86.0
50.4,91.0
50.41,71.0
50.42,81.0
50.43,75.0
50.44,57.0
50.45,84.0
50.46,71.0
50.47,60.0
50.48,72.0
50.49,87.0
50.5,81.0
50.51,78.0
50.52,84.0
50.53,61.0
50.54,60.0
50.55,76.0
50.56,65.0
50.57,81.0
50.58,70.0
50.59,71.0
50.6,63.0
50.61,99.0
50.62,63.0
50.63,77.0
50.64,71.0
50.65,83.0
50.66,65.0
50.67,80.0
50.68,75.0
50.69,64.0
50.7,69.0
50.71,71.0
50.72,68.0
50.73,86.0
50.74,77.0
50.75,87.0
50.76,90.0
50.77,82.0
50.78,84.0
50.79,64.0
50.8,89.0
50.81,82.0
50.82,68.0
50.83,88.0
50.84,83.0
50.85,93.0
50.86,78.0
50.87,90.0
50.88,78.0
50.89,86.0
50.9,76.0
50.91,64.0
50.92,79.0
50.93,77.0
50.94,53.0
50.95,73.0
50.96,85.0
50.97,76.0
50.98,77.0
50.99,64.0
51.0,75.0
51.01,78.0
51.02,68.0
51.03,73.0
51.04,76.0
51.05,67.0
51.06,71.0
51.07,76.0
51.08,87.0
51.09,79.0
51.1,69.0
51.11,78.0
51.12,78.0
51.13,64.0
51.14,81.0
51.15,72.0
51.16,74.0
51.17,78.0
51.18,82.0
51.19,63.0
51.2,75.0
51.21,75.0
51.22,68.0
51.23,65.0
51.24,68.0
51.25,62.0
51.26,74.0
51.27,76.0
51.28,66.0
51.29,77.0
51.3,92.0
51.31,68.0
51.32,72.0
51.33,74.0
51.34,71.0
51.35,85.0
51.36,71.0
51.37,75.0
51.38,75.0
51.39,89.0
51.4,73.0
51.41,65.0
51.42,86.0
51.43,77.0
51.44,80.0
51.45,83.0
51.46,67.0
51.47,60.0
51.48,82.0
51.49,80.0
51.5,84.0
51.51,75.0
51.52,77.0
51.53,91.0
51.54,74.0
51.55,81.0
51.56,80.0
51.57,82.0
51.58,74.0
51.59,72.0
51.6,87.0
51.61,74.0
51.62,78.0
51.63,70.0
51.64,63.0
51.65,74.0
51.66,85.0
51.67,64.0
51.68,82.0
51.69,65.0
51.7,65.0
51.71,69.0
51.72,63.0
51.73,76.0
51.74,80.0
51.75,83.0
51.76,71.0
51.77,75.0
51.78,90.0
51.79,93.0
51.8,69.0
51.81,67.0
51.82,74.0
51.83,80.0
51.84,68.0
51.85,86.0
51.86,71.0
51.87,72.0
51.88,73.0
51.89,88.0
51.9,72.0
51.91,60.0
51.92,73.0
51.93,68.0
51.94,83.0
51.95,90.0
51.96,66.0
51.97,84.0
51.98,72.0
51.99,79.0
52.0,87.0
52.01,52.0
52.02,65.0
52.03,66.0
52.04,79.0
52.05,59.0
52.06,60.0
52.07,73.0
52.08,80.0
52.09,83.0
52.1,75.0
52.11,73.0
52.12,66.0
52.13,63.0
52.14,80.0
52.15,69.0
52.16,78.0
52.17,92.0
52.18,79.0
52.19,69.0
52.2,71.0
52.21,58.0
52.22,66.0
52.23,74.0
52.24,64.0
52.25,84.0
52.26,87.0
52.27,78.0
52.28,73.0
52.29,75.0
52.3,64.0
52.31,70.0
52.32,84.0
52.33,73.0
52.34,76.0
52.35,66.0
52.36,88.0
52.37,63.0
52.38,80.0
52.39,63.0
52.4,62.0
52.41,57.0
52.42,58.0
52.43,62.0
52.44,65.0
52.45,79.0
52.46,74.0
52.47,77.0
52.48,77.0
52.49,67.0
52.5,77.0
52.51,85.0
52.52,87.0
52.53,78.0
52.54,69.0
52.55,73.0
52.56,83.0
52.57,85.0
52.58,70.0
52.59,84.0
52.6,68.0
52.61,66.0
52.62,70.0
52.63,59.0
52.64,78.0
52.65,86.0
52.66,60.0
52.67,71.0
52.68,83.0
52.69,81.0
52.7,66.0
52.71,78.0
52.72,74.0
52.73,75.0
52.74,86.0
52.75,74.0
52.76,90.0
52.77,70.0
52.78,75.0
52.79,70.0
52.8,71.0
52.81,80.0
52.82,77.0
52.83,70.0
52.84,88.0
52.85,74.0
52.86,87.0
52.87,65.0
52.88,73.0
52.89,78.0
52.9,66.0
52.91,68.0
52.92,73.0
52.93,85.0
52.94,68.0
52.95,68.0
52.96,76.0
52.97,70.0
52.98,72.0
52.99,67.0
53.0,78.0
53.01,91.0
53.02,85.0
53.03,65.0
53.04,74.0
53.05,64.0
53.06,62.0
53.07,81.0
53.08,80.0
53.09,68.0
53.1,80.0
53.11,77.0
53.12,70.0
53.13,74.0
53.14,79.0
53.15,73.0
53.16,64.0
53.17,78.0
53.18,79.0
53.19,61.0
53.2,73.0
53.21,78.0
53.22,79.0
53.23,73.0
53.24,81.0
53.25,93.0
53.26,68.0
53.27,92.0
53.28,80.0
53.29,70.0
53.3,76.0
53.31,95.0
53.32,70.0
53.33,74.0
53.34,78.0
53.35,68.0
53.36,77.0
53.37,84.0
53.38,79.0
53.39,64.0
53.4,55.0
53.41,85.0
53.42,71.0
53.43,74.0
53.44,93.0
53.45,73.0
53.46,66.0
53.47,83.0
53.48,68.0
53.49,84.0
53.5,71.0
53.51,67.0
53.52,53.0
53.53,59.0
53.54,65.0
53.55,68.0
53.56,96.0
53.57,72.0
53.58,82.0
53.59,72.0
53.6,75.0
53.61,75.0
53.62,63.0
53.63,80.0
53.64,82.0
53.65,67.0
53.66,79.0
53.67,74.0
53.68,76.0
53.69,82.0
53.7,81.0
53.71,95.0
53.72,90.0
53.73,83.0
53.74,84.0
53.75,69.0
53.76,96.0
53.77,79.0
53.78,65.0
53.79,83.0
53.8,78.0
53.81,77.0
53.82,78.0
53.83,74.0
53.84,85.0
53.85,98.0
53.86,73.0
53.87,86.0
53.88,69.0
53.89,86.0
53.9,79.0
53.91,77.0
53.92,74.0
53.93,71.0
53.94,89.0
53.95,90.0
53.96,77.0
53.97,85.0
53.98,90.0
53.99,84.0
54.0,87.0
54.01,86.0
54.02,73.0
54.03,66.0
54.04,95.0
54.05,89.0
54.06,77.0
54.07,78.0
54.08,90.0
54.09,75.0
54.1,65.0
54.11,70.0
54.12,57.0
54.13,73.0
54.14,90.0
54.15,83.0
54.16,65.0
54.17,71.0
54.18,84.0
54.19,77.0
54.2,95.0
54.21,73.0
54.22,67.0
54.23,91.0
54.24,81.0
54.25,70.0
54.26,81.0
54.27,79.0
54.28,76.0
54.29,61.0
54.3,78.0
54.31,86.0
54.32,80.0
54.33,75.0
54.34,77.0
54.35,65.0
54.36,76.0
54.37,92.0
54.38,71.0
54.39,73.0
54.4,75.0
54.41,70.0
54.42,92.0
54.43,81.0
54.44,71.0
54.45,71.0
54.46,69.0
54.47,95.0
54.48,74.0
54.49,73.0
54.5,72.0
54.51,75.0
54.52,66.0
54.53,77.0
54.54,69.0
54.55,81.0
54.56,81.0
54.57,64.0
54.58,84.0
54.59,76.0
54.6,87.0
54.61,71.0
54.62,73.0
54.63,73.0
54.64,75.0
54.65,82.0
54.66,87.0
54.67,66.0
54.68,71.0
54.69,54.0
54.7,96.0
54.71,75.0
54.72,86.0
54.73,68.0
54.74,76.0
54.75,80.0
54.76,79.0
54.77,88.0
54.78,49.0
54.79,90.0
54.8,75.0
54.81,79.0
54.82,73.0
54.83,64.0
54.84,67.0
54.85,80.0
54.86,75.0
54.87,81.0
54.88,65.0
54.89,71.0
54.9,90.0
54.91,94.0
54.92,69.0
54.93,83.0
54.94,78.0
54.95,73.0
54.96,72.0
54.97,78.0
54.98,70.0
54.99,69.0
55.0,95.0
55.01,69.0
55.02,82.0
55.03,75.0
55.04,61.0
55.05,81.0
55.06,86.0
55.07,82.0
55.08,68.0
55.09,92.0
55.1,82.0
55.11,100.0
55.12,108.0
55.13,112.0
55.14,99.0
55.15,129.0
55.16,106.0
55.17,116.0
55.18,104.0
55.19,88.0
55.2,93.0
55.21,101.0
55.22,91.0
55.23,80.0
55.24,87.0
55.25,95.0
55.26,87.0
55.27,71.0
55.28,86.0
55.29,65.0
55.3,73.0
55.31,105.0
55.32,78.0
55.33,77.0
55.34,83.0
55.35,96.0
55.36,66.0
55.37,74.0
55.38,87.0
55.39,93.0
55.4,76.0
55.41,73.0
55.42,93.0
55.43,85.0
55.44,79.0
55.45,71.0
55.46,68.0
55.47,72.0
55.48,86.0
55.49,78.0
55.5,76.0
55.51,70.0
55.52,82.0
55.53,66.0
55.54,68.0
55.55,58.0
55.56,70.0
55.57,75.0
55.58,74.0
55.59,79.0
55.6,57.0
55.61,85.0
55.62,65.0
55.63,78.0
55.64,80.0
55.65,84.0
55.66,91.0
55.67,80.0
55.68,66.0
55.69,71.0
55.7,77.0
55.71,74.0
55.72,75.0
55.73,83.0
55.74,61.0
55.75,71.0
55.76,68.0
55.77,67.0
55.78,67.0
55.79,68.0
55.8,78.0
55.81,64.0
55.82,74.0
55.83,67.0
55.84,89.0
55.85,63.0
55.86,72.0
55.87,57.0
55.88,87.0
55.89,77.0
55.9,77.0
55.91,80.0
55.92,79.0
55.93,72.0
55.94,73.0
55.95,92.0
55.96,86.0
55.97,61.0
55.98,73.0
55.99,82.0
56.0,74.0
56.01,76.0
56.02,70.0
56.03,66.0
56.04,76.0
56.05,69.0
56.06,76.0
56.07,72.0
56.08,82.0
56.09,60.0
56.1,84.0
56.11,86.0
56.12,60.0
56.13,79.0
56.14,96.0
56.15,75.0
56.16,73.0
56.17,95.0
56.18,97.0
56.19,67.0
56.2,71.0
56.21,94.0
56.22,84.0
56.23,93.0
56.24,83.0
56.25,90.0
56.26,69.0
56.27,74.0
56.28,69.0
56.29,89.0
56.3,79.0
56.31,94.0
56.32,96.0
56.33,79.0
56.34,92.0
56.35,68.0
56.36,93.0
56.37,69.0
56.38,91.0
56.39,85.0
56.4,68.0
56.41,86.0
56.42,73.0
56.43,75.0
56.44,63.0
56.45,75.0
56.46,74.0
56.47,63.0
56.48,58.0
56.49,84.0
56.5,74.0
56.51,81.0
56.52,85.0
56.53,70.0
56.54,81.0
56.55,82.0
56.56,91.0
56.57,75.0
56.58,80.0
56.59,87.0
56.6,81.0
56.61,78.0
56.62,83.0
56.63,73.0
56.64,68.0
56.65,62.0
56.66,68.0
56.67,85.0
56.68,88.0
56.69,75.0
56.7,80.0
56.71,53.0
56.72,72.0
56.73,66.0
56.74,66.0
56.75,75.0
56.76,83.0
56.77,72.0
56.78,74.0
56.79,62.0
56.8,49.0
56.81,82.0
56.82,64.0
56.83,70.0
56.84,78.0
56.85,93.0
56.86,91.0
56.87,67.0
56.88,58.0
56.89,58.0
56.9,70.0
56.91,72.0
56.92,75.0
56.93,88.0
56.94,70.0
56.95,67.0
56.96,68.0
56.97,69.0
56.98,63.0
56.99,85.0
57.0,92.0
57.01,76.0
57.02,73.0
57.03,72.0
57.04,72.0
57.05,82.0
57.06,76.0
57.07,93.0
57.08,90.0
57.09,81.0
57.1,64.0
57.11,94.0
57.12,75.0
57.13,67.0
57.14,65.0
57.15,73.0
57.16,77.0
57.17,76.0
57.18,78.0
57.19,88.0
57.2,74.0
57.21,71.0
57.22,69.0
57.23,83.0
57.24,64.0
57.25,84.0
57.26,65.0
57.27,82.0
57.28,78.0
57.29,78.0
57.3,89.0
57.31,85.0
57.32,69.0
57.33,83.0
57.34,77.0
57.35,81.0
57.36,74.0
57.37,73.0
57.38,75.0
57.39,74.0
57.4,94.0
57.41,67.0
57.42,79.0
57.43,62.0
57.44,65.0
57.45,80.0
57.46,65.0
57.47,73.0
57.48,66.0
57.49,69.0
57.5,71.0
57.51,84.0
57.52,72.0
57.53,72.0
57.54,80.0
57.55,73.0
57.56,78.0
57.57,63.0
57.58,80.0
57.59,91.0
57.6,74.0
57.61,72.0
57.62,84.0
57.63,94.0
57.64,89.0
57.65,81.0
57.66,84.0
57.67,73.0
57.68,87.0
57.69,80.0
57.7,73.0
57.71,68.0
57.72,59.0
57.73,79.0
57.74,76.0
57.75,88.0
57.76,81.0
57.77,80.0
57.78,92.0
57.79,71.0
57.8,86.0
57.81,84.0
57.82,92.0
57.83,69.0
57.84,80.0
57.85,67.0
57.86,81.0
57.87,90.0
57.88,70.0
57.89,86.0
57.9,78.0
57.91,77.0
57.92,77.0
57.93,87.0
57.94,75.0
57.95,76.0
57.96,91.0
57.97,70.0
57.98,62.0
57.99,71.0
58.0,70.0
58.01,71.0
58.02,91.0
58.03,66.0
58.04,88.0
58.05,86.0
58.06,73.0
58.07,72.0
58.08,78.0
58.09,82.0
58.1,72.0
58.11,76.0
58.12,62.0
58.13,94.0
58.14,82.0
58.15,77.0
58.16,81.0
58.17,61.0
58.18,84.0
58.19,81.0
58.2,72.0
58.21,73.0
58.22,86.0
58.23,84.0
58.24,100.0
58.25,70.0
58.26,74.0
58.27,69.0
58.28,74.0
58.29,95.0
58.3,84.0
58.31,74.0
58.32,79.0
58.33,76.0
58.34,71.0
58.35,77.0
58.36,63.0
58.37,81.0
58.38,78.0
58.39,87.0
58.4,79.0
58.41,63.0
58.42,97.0
58.43,66.0
58.44,65.0
58.45,81.0
58.46,77.0
58.47,87.0
58.48,69.0
58.49,86.0
58.5,74.0
58.51,82.0
58.52,92.0
58.53,79.0
58.54,68.0
58.55,77.0
58.56,74.0
58.57,85.0
58.58,76.0
58.59,81.0
58.6,56.0
58.61,75.0
58.62,84.0
58.63,61.0
58.64,66.0
58.65,83.0
58.66,60.0
58.67,82.0
58.68,80.0
58.69,71.0
58.7,71.0
58.71,78.0
58.72,69.0
58.73,66.0
58.74,87.0
58.75,65.0
58.76,69.0
58.77,81.0
58.78,85.0
58.79,73.0
58.8,75.0
58.81,61.0
58.82,70.0
58.83,73.0
58.84,96.0
58.85,86.0
58.86,84.0
58.87,79.0
58.88,66.0
58.89,73.0
58.9,75.0
58.91,91.0
58.92,84.0
58.93,77.0
58.94,82.0
58.95,66.0
58.96,74.0
58.97,96.0
58.98,100.0
58.99,95.0
59.0,76.0
59.01,79.0
59.02,92.0
59.03,86.0
59.04,63.0
59.05,97.0
59.06,88.0
59.07,82.0
59.08,79.0
59.09,62.0
59.1,79.0
59.11,72.0
59.12,88.0
59.13,88.0
59.14,71.0
59.15,60.0
59.16,91.0
59.17,83.0
59.18,75.0
59.19,90.0
59.2,85.0
59.21,81.0
59.22,92.0
59.23,62.0
59.24,70.0
59.25,65.0
59.26,81.0
59.27,76.0
59.28,82.0
59.29,77.0
59.3,74.0
59.31,68.0
59.32,74.0
59.33,87.0
59.34,67.0
59.35,63.0
59.36,86.0
59.37,87.0
59.38,81.0
59.39,69.0
59.4,96.0
59.41,68.0
59.42,77.0
59.43,71.0
59.44,74.0
59.45,69.0
59.46,71.0
59.47,74.0
59.48,68.0
59.49,65.0
59.5,80.0
59.51,89.0
59.52,80.0
59.53,87.0
59.54,69.0
59.55,88.0
59.56,69.0
59.57,86.0
59.58,65.0
59.59,89.0
59.6,78.0
59.61,91.0
59.62,83.0
59.63,65.0
59.64,74.0
59.65,69.0
59.66,72.0
59.67,77.0
59.68,82.0
59.69,80.0
59.7,57.0
59.71,71.0
59.72,79.0
59.73,64.0
59.74,69.0
59.75,79.0
59.76,72.0
59.77,109.0
59.78,80.0
59.79,79.0
59.8,69.0
59.81,81.0
59.82,75.0
59.83,71.0
59.84,61.0
59.85,60.0
59.86,66.0
59.87,70.0
59.88,73.0
59.89,73.0
59.9,82.0
59.91,76.0
59.92,86.0
59.93,67.0
59.94,65.0
59.95,76.0
59.96,65.0
59.97,55.0
59.98,83.0
59.99,67.0
60.0,63.0
60.01,59.0
60.02,68.0
60.03,64.0
60.04,77.0
60.05,94.0
60.06,85.0
60.07,54.0
60.08,86.0
60.09,89.0
60.1,79.0
60.11,68.0
60.12,85.0
60.13,78.0
60.14,74.0
60.15,73.0
60.16,92.0
60.17,80.0
60.18,57.0
60.19,73.0
60.2,97.0
60.21,57.0
60.22,72.0
60.23,63.0
60.24,79.0
60.25,56.0
60.26,73.0
60.27,86.0
60.28,77.0
60.29,86.0
60.3,77.0
60.31,79.0
60.32,73.0
60.33,74.0
60.34,79.0
60.35,98.0
60.36,53.0
60.37,71.0
60.38,74.0
60.39,77.0
60.4,77.0
60.41,61.0
60.42,68.0
60.43,62.0
60.44,75.0
60.45,74.0
60.46,74.0
60.47,65.0
60.48,74.0
60.49,72.0
60.5,79.0
60.51,92.0
60.52,68.0
60.53,71.0
60.54,57.0
60.55,84.0
60.56,91.0
60.57,78.0
60.58,66.0
60.59,78.0
60.6,74.0
60.61,64.0
60.62,58.0
60.63,84.0
60.64,88.0
60.65,76.0
60.66,75.0
60.67,84.0
60.68,80.0
60.69,90.0
60.7,80.0
60.71,60.0
60.72,70.0
60.73,79.0
60.74,68.0
60.75,98.0
60.76,69.0
60.77,81.0
60.78,82.0
60.79,85.0
60.8,81.0
60.81,105.0
60.82,74.0
60.83,76.0
60.84,81.0
60.85,75.0
60.86,78.0
60.87,83.0
60.88,87.0
60.89,82.0
60.9,95.0
60.91,67.0
60.92,91.0
60.93,83.0
60.94,70.0
60.95,65.0
60.96,84.0
60.97,77.0
60.98,75.0
60.99,67.0
61.0,77.0
61.01,85.0
61.02,86.0
61.03,81.0
61.04,73.0
61.05,78.0
61.06,72.0
61.07,82.0
61.08,81.0
61.09,88.0
61.1,83.0
61.11,84.0
61.12,81.0
61.13,84.0
61.14,75.0
61.15,78.0
61.16,65.0
61.17,71.0
61.18,72.0
61.19,62.0
61.2,98.0
61.21,87.0
61.22,79.0
61.23,89.0
61.24,70.0
61.25,81.0
61.26,74.0
61.27,74.0
61.28,71.0
61.29,62.0
61.3,77.0
61.31,70.0
61.32,86.0
61.33,78.0
61.34,77.0
61.35,86.0
61.36,79.0
61.37,79.0
61.38,68.0
61.39,80.0
61.4,74.0
61.41,73.0
61.42,79.0
61.43,60.0
61.44,66.0
61.45,84.0
61.46,81.0
61.47,68.0
61.48,75.0
61.49,85.0
61.5,75.0
61.51,83.0
61.52,72.0
61.53,70.0
61.54,71.0
61.55,75.0
61.56,81.0
61.57,87.0
61.58,82.0
61.59,92.0
61.6,79.0
61.61,68.0
61.62,67.0
61.63,73.0
61.64,68.0
61.65,67.0
61.66,73.0
61.67,78.0
61.68,79.0
61.69,67.0
61.7,73.0
61.71,87.0
61.72,75.0
61.73,88.0
61.74,71.0
61.75,92.0
61.76,86.0
61.77,90.0
61.78,71.0
61.79,78.0
61.8,61.0
61.81,71.0
61.82,98.0
61.83,75.0
61.84,78.0
61.85,71.0
61.86,72.0
61.87,67.0
61.88,90.0
61.89,70.0
61.9,88.0
61.91,89.0
61.92,79.0
61.93,70.0
61.94,60.0
61.95,66.0
61.96,71.0
61.97,79.0
61.98,76.0
61.99,80.0
62.0,85.0
62.01,84.0
62.02,80.0
62.03,71.0
62.04,86.0
62.05,75.0
62.06,80.0
62.07,73.0
62.08,82.0
62.09,63.0
62.1,76.0
62.11,89.0
62.12,82.0
62.13,78.0
62.14,83.0
62.15,61.0
62.16,95.0
62.17,66.0
62.18,74.0
62.19,77.0
62.2,82.0
62.21,65.0
62.22,81.0
62.23,64.0
62.24,64.0
62.25,62.0
62.26,72.0
62.27,82.0
62.28,86.0
62.29,69.0
62.3,97.0
62.31,79.0
62.32,79.0
62.33,68.0
62.34,72.0
62.35,77.0
62.36,80.0
62.37,69.0
62.38,72.0
62.39,69.0
62.4,63.0
62.41,80.0
62.42,90.0
62.43,75.0
62.44,77.0
62.45,73.0
62.46,73.0
62.47,83.0
62.48,72.0
62.49,70.0
62.5,69.0
62.51,76.0
62.52,80.0
62.53,69.0
62.54,74.0
62.55,76.0
62.56,94.0
62.57,79.0
62.58,78.0
62.59,79.0
62.6,83.0
62.61,88.0
62.62,76.0
62.63,83.0
62.64,66.0
62.65,59.0
62.66,74.0
62.67,74.0
62.68,80.0
62.69,72.0
62.7,78.0
62.71,60.0
62.72,70.0
62.73,64.0
62.74,66.0
62.75,72.0
62.76,69.0
62.77,71.0
62.78,64.0
62.79,70.0
62.8,70.0
62.81,65.0
62.82,80.0
62.83,79.0
62.84,92.0
62.85,87.0
62.86,63.0
62.87,85.0
62.88,76.0
62.89,79.0
62.9,76.0
62.91,102.0
62.92,70.0
62.93,76.0
62.94,79.0
62.95,73.0
62.96,73.0
62.97,74.0
62.98,69.0
62.99,77.0
63.0,74.0
63.01,80.0
63.02,68.0
63.03,69.0
63.04,74.0
63.05,74.0
63.06,55.0
63.07,101.0
63.08,77.0
63.09,76.0
63.1,65.0
63.11,75.0
63.12,60.0
63.13,73.0
63.14,70.0
63.15,66.0
63.16,79.0
63.17,67.0
63.18,60.0
63.19,66.0
63.2,68.0
63.21,78.0
63.22,69.0
63.23,82.0
63.24,87.0
63.25,93.0
63.26,81.0
63.27,86.0
63.28,73.0
63.29,85.0
63.3,68.0
63.31,66.0
63.32,76.0
63.33,97.0
63.34,72.0
63.35,81.0
63.36,81.0
63.37,84.0
63.38,81.0
63.39,75.0
63.4,84.0
63.41,84.0
63.42,79.0
63.43,67.0
63.44,63.0
63.45,85.0
63.46,82.0
63.47,86.0
63.48,76.0
63.49,73.0
63.5,73.0
63.51,62.0
63.52,80.0
63.53,69.0
63.54,69.0
63.55,85.0
63.56,72.0
63.57,71.0
63.58,78.0
63.59,74.0
63.6,74.0
63.61,74.0
63.62,80.0
63.63,76.0
63.64,91.0
63.65,79.0
63.66,83.0
63.67,76.0
63.68,66.0
63.69,73.0
63.7,69.0
63.71,67.0
63.72,87.0
63.73,82.0
63.74,76.0
63.75,68.0
63.76,81.0
63.77,82.0
63.78,68.0
63.79,72.0
63.8,63.0
63.81,83.0
63.82,59.0
63.83,79.0
63.84,68.0
63.85,75.0
63.86,70.0
63.87,72.0
63.88,64.0
63.89,72.0
63.9,61.0
63.91,79.0
63.92,80.0
63.93,78.0
63.94,57.0
63.95,82.0
63.96,56.0
63.97,73.0
63.98,75.0
63.99,82.0
64.0,75.0
64.01,69.0
64.02,89.0
64.03,81.0
64.04,67.0
64.05,80.0
64.06,87.0
64.07,80.0
64.08,61.0
64.09,72.0
64.1,75.0
64.11,61.0
64.12,80.0
64.13,90.0
64.14,84.0
64.15,72.0
64.16,77.0
64.17,85.0
64.18,78.0
64.19,61.0
64.2,70.0
64.21,75.0
64.22,77.0
64.23,72.0
64.24,66.0
64.25,73.0
64.26,80.0
64.27,75.0
64.28,71.0
64.29,86.0
64.3,91.0
64.31,74.0
64.32,62.0
64.33,81.0
64.34,68.0
64.35,87.0
64.36,77.0
64.37,66.0
64.38,76.0
64.39,55.0
64.4,75.0
64.41,83.0
64.42,72.0
64.43,83.0
64.44,83.0
64.45,65.0
64.46,57.0
64.47,77.0
64.48,70.0
64.49,79.0
64.5,60.0
64.51,61.0
64.52,80.0
64.53,85.0
64.54,62.0
64.55,81.0
64.56,81.0
64.57,76.0
64.58,81.0
64.59,56.0
64.6,67.0
64.61,71.0
64.62,82.0
64.63,75.0
64.64,71.0
64.65,85.0
64.66,77.0
64.67,70.0
64.68,72.0
64.69,66.0
64.7,88.0
64.71,64.0
64.72,63.0
64.73,83.0
64.74,65.0
64.75,70.0
64.76,60.0
64.77,80.0
64.78,63.0
64.79,68.0
64.8,79.0
64.81,77.0
64.82,74.0
64.83,67.0
64.84,69.0
64.85,87.0
64.86,67.0
64.87,87.0
64.88,80.0
64.89,84.0
64.9,74.0
64.91,80.0
64.92,82.0
64.93,69.0
64.94,75.0
64.95,89.0
64.96,79.0
64.97,77.0
64.98,86.0
64.99,81.0
65.0,68.0
65.01,78.0
65.02,67.0
65.03,63.0
65.04,78.0
65.05,86.0
65.06,64.0
65.07,74.0
65.08,91.0
65.09,91.0
65.1,65.0
65.11,77.0
65.12,69.0
65.13,82.0
65.14,83.0
65.15,74.0
65.16,97.0
65.17,74.0
65.18,71.0
65.19,65.0
65.2,68.0
65.21,75.0
65.22,88.0
65.23,72.0
65.24,69.0
65.25,70.0
65.26,92.0
65.27,70.0
65.28,85.0
65.29,77.0
65.3,61.0
65.31,84.0
65.32,61.0
65.33,69.0
65.34,80.0
65.35,64.0
65.36,84.0
65.37,79.0
65.38,74.0
65.39,68.0
65.4,73.0
65.41,82.0
65.42,83.0
65.43,64.0
65.44,70.0
65.45,88.0
65.46,65.0
65.47,56.0
65.48,71.0
65.49,56.0
65.5,71.0
65.51,69.0
65.52,63.0
65.53,79.0
65.54,70.0
65.55,81.0
65.56,76.0
65.57,62.0
65.58,79.0
65.59,82.0
65.6,75.0
65.61,70.0
65.62,72.0
65.63,76.0
65.64,68.0
65.65,72.0
65.66,88.0
65.67,81.0
65.68,60.0
65.69,79.0
65.7,82.0
65.71,81.0
65.72,59.0
65.73,88.0
65.74,75.0
65.75,79.0
65.76,79.0
65.77,86.0
65.78,78.0
65.79,82.0
65.8,84.0
65.81,58.0
65.82,86.0
65.83,78.0
65.84,56.0
65.85,83.0
65.86,58.0
65.87,73.0
65.88,80.0
65.89,70.0
65.9,91.0
65.91,68.0
65.92,78.0
65.93,90.0
65.94,69.0
65.95,87.0
65.96,89.0
65.97,77.0
65.98,91.0
65.99,81.0
66.0,84.0
66.01,95.0
66.02,82.0
66.03,91.0
66.04,100.0
66.05,103.0
66.06,86.0
66.07,100.0
66.08,85.0
66.09,92.0
66.1,108.0
66.11,94.0
66.12,107.0
66.13,76.0
66.14,92.0
66.15,93.0
66.16,89.0
66.17,83.0
66.18,90.0
66.19,82.0
66.2,83.0
66.21,90.0
66.22,111.0
66.23,68.0
66.24,74.0
66.25,83.0
66.26,85.0
66.27,93.0
66.28,106.0
66.29,68.0
66.3,88.0
66.31,81.0
66.32,88.0
66.33,96.0
66.34,70.0
66.35,88.0
66.36,75.0
66.37,78.0
66.38,65.0
66.39,77.0
66.4,76.0
66.41,88.0
66.42,70.0
66.43,103.0
66.44,87.0
66.45,82.0
66.46,59.0
66.47,85.0
66.48,94.0
66.49,71.0
66.5,75.0
66.51,66.0
66.52,74.0
66.53,82.0
66.54,61.0
66.55,88.0
66.56,74.0
66.57,71.0
66.58,68.0
66.59,83.0
66.6,79.0
66.61,82.0
66.62,70.0
66.63,73.0
66.64,71.0
66.65,73.0
66.66,70.0
66.67,68.0
66.68,69.0
66.69,81.0
66.7,57.0
66.71,59.0
66.72,80.0
66.73,70.0
66.74,72.0
66.75,72.0
66.76,63.0
66.77,76.0
66.78,80.0
66.79,94.0
66.8,75.0
66.81,67.0
66.82,66.0
66.83,66.0
66.84,71.0
66.85,71.0
66.86,72.0
66.87,78.0
66.88,58.0
66.89,78.0
66.9,70.0
66.91,75.0
66.92,79.0
66.93,93.0
66.94,68.0
66.95,83.0
66.96,70.0
66.97,75.0
66.98,76.0
66.99,76.0
67.0,84.0
67.01,73.0
67.02,77.0
67.03,77.0
67.04,83.0
67.05,68.0
67.06,72.0
67.07,76.0
67.08,88.0
67.09,71.0
67.1,81.0
67.11,67.0
67.12,68.0
67.13,67.0
67.14,108.0
67.15,69.0
67.16,55.0
67.17,85.0
67.18,74.0
67.19,74.0
67.2,67.0
67.21,92.0
67.22,93.0
67.23,86.0
67.24,64.0
67.25,65.0
67.26,79.0
67.27,94.0
67.28,75.0
67.29,63.0
67.3,58.0
67.31,73.0
67.32,76.0
67.33,84.0
67.34,78.0
67.35,85.0
67.36,57.0
67.37,71.0
67.38,88.0
67.39,67.0
67.4,73.0
67.41,81.0
67.42,78.0
67.43,77.0
67.44,74.0
67.45,77.0
67.46,89.0
67.47,82.0
67.48,66.0
67.49,77.0
67.5,88.0
67.51,71.0
67.52,69.0
67.53,74.0
67.54,82.0
67.55,72.0
67.56,70.0
67.57,91.0
67.58,82.0
67.59,73.0
67.6,70.0
67.61,73.0
67.62,80.0
67.63,79.0
67.64,77.0
67.65,85.0
67.66,81.0
67.67,74.0
67.68,74.0
67.69,96.0
67.7,63.0
67.71,74.0
67.72,72.0
67.73,68.0
67.74,89.0
67.75,98.0
67.76,71.0
67.77,72.0
67.78,77.0
67.79,97.0
67.8,86.0
67.81,82.0
67.82,82.0
67.83,67.0
67.84,75.0
67.85,90.0
67.86,83.0
67.87,78.0
67.88,65.0
67.89,62.0
67.9,81.0
67.91,67.0
67.92,63.0
67.93,69.0
67.94,72.0
67.95,78.0
67.96,85.0
67.97,66.0
67.98,70.0
67.99,75.0
68.0,76.0
68.01,59.0
68.02,77.0
68.03,79.0
68.04,74.0
68.05,59.0
68.06,57.0
68.07,69.0
68.08,70.0
68.09,82.0
68.1,62.0
68.11,64.0
68.12,72.0
68.13,75.0
68.14,66.0
68.15,76.0
68.16,66.0
68.17,69.0
68.18,76.0
68.19,80.0
68.2,88.0
68.21,77.0
68.22,62.0
68.23,76.0
68.24,85.0
68.25,65.0
68.26,83.0
68.27,59.0
68.28,76.0
68.29,84.0
68.3,64.0
68.31,76.0
68.32,68.0
68.33,72.0
68.34,63.0
68.35,70.0
68.36,64.0
68.37,73.0
68.38,74.0
68.39,88.0
68.4,62.0
68.41,86.0
68.42,64.0
68.43,73.0
68.44,77.0
68.45,75.0
68.46,83.0
68.47,82.0
68.48,79.0
68.49,75.0
68.5,84.0
68.51,67.0
68.52,71.0
68.53,75.0
68.54,60.0
68.55,70.0
68.56,83.0
68.57,79.0
68.58,68.0
68.59,97.0
68.6,89.0
68.61,80.0
68.62,80.0
68.63,77.0
68.64,61.0
68.65,85.0
68.66,76.0
68.67,64.0
68.68,84.0
68.69,90.0
68.7,70.0
68.71,73.0
68.72,79.0
68.73,74.0
68.74,71.0
68.75,85.0
68.76,74.0
68.77,65.0
68.78,71.0
68.79,66.0
68.8,75.0
68.81,83.0
68.82,57.0
68.83,67.0
68.84,81.0
68.85,67.0
68.86,87.0
68.87,65.0
68.88,82.0
68.89,64.0
68.9,73.0
68.91,67.0
68.92,84.0
68.93,73.0
68.94,76.0
68.95,86.0
68.96,68.0
68.97,74.0
68.98,78.0
68.99,72.0
69.0,73.0
69.01,87.0
69.02,72.0
69.03,74.0
69.04,68.0
69.05,72.0
69.06,76.0
69.07,66.0
69.08,92.0
69.09,81.0
69.1,75.0
69.11,62.0
69.12,70.0
69.13,69.0
69.14,73.0
69.15,59.0
69.16,87.0
69.17,70.0
69.18,73.0
69.19,68.0
69.2,73.0
69.21,70.0
69.22,74.0
69.23,70.0
69.24,79.0
69.25,55.0
69.26,65.0
69.27,77.0
69.28,56.0
69.29,70.0
69.3,68.0
69.31,65.0
69.32,71.0
69.33,64.0
69.34,71.0
69.35,76.0
69.36,83.0
69.37,76.0
69.38,60.0
69.39,72.0
69.4,74.0
69.41,63.0
69.42,87.0
69.43,74.0
69.44,73.0
69.45,67.0
69.46,80.0
69.47,77.0
69.48,74.0
69.49,62.0
69.5,65.0
69.51,85.0
69.52,77.0
69.53,82.0
69.54,72.0
69.55,78.0
69.56,59.0
69.57,66.0
69.58,88.0
69.59,91.0
69.6,69.0
69.61,57.0
69.62,81.0
69.63,71.0
69.64,82.0
69.65,47.0
69.66,67.0
69.67,66.0
69.68,73.0
69.69,80.0
69.7,70.0
69.71,82.0
69.72,54.0
69.73,59.0
69.74,80.0
69.75,78.0
69.76,81.0
69.77,83.0
69.78,92.0
69.79,66.0
69.8,66.0
69.81,78.0
69.82,75.0
69.83,62.0
69.84,69.0
69.85,70.0
69.86,87.0
69.87,65.0
69.88,88.0
69.89,84.0
69.9,68.0
69.91,69.0
69.92,75.0
69.93,67.0
69.94,82.0
69.95,72.0
69.96,66.0
69.97,78.0
69.98,67.0
69.99,72.0
70.0,70.0
70.01,67.0
70.02,81.0
70.03,82.0
70.04,76.0
70.05,69.0
70.06,73.0
70.07,60.0
70.08,62.0
70.09,74.0
70.1,72.0
70.11,79.0
70.12,65.0
70.13,76.0
70.14,80.0
70.15,67.0
70.16,67.0
70.17,83.0
70.18,82.0
70.19,75.0
70.2,90.0
70.21,88.0
70.22,81.0
70.23,71.0
70.24,82.0
70.25,65.0
70.26,68.0
70.27,84.0
70.28,82.0
70.29,83.0
70.3,70.0
70.31,76.0
70.32,82.0
70.33,84.0
70.34,80.0
70.35,78.0
70.36,94.0
70.37,68.0
70.38,83.0
70.39,76.0
70.4,68.0
70.41,78.0
70.42,84.0
70.43,80.0
70.44,75.0
70.45,81.0
70.46,75.0
70.47,80.0
70.48,74.0
70.49,77.0
70.5,66.0
70.51,76.0
70.52,67.0
70.53,77.0
70.54,67.0
70.55,80.0
70.56,83.0
70.57,66.0
70.58,60.0
70.59,51.0
70.6,78.0
70.61,69.0
70.62,79.0
70.63,72.0
70.64,83.0
70.65,76.0
70.66,70.0
70.67,71.0
70.68,90.0
70.69,62.0
70.7,72.0
70.71,87.0
70.72,80.0
70.73,96.0
70.74,78.0
70.75,81.0
70.76,79.0
70.77,79.0
70.78,80.0
70.79,79.0
70.8,67.0
70.81,67.0
70.82,66.0
70.83,72.0
70.84,82.0
70.85,65.0
70.86,78.0
70.87,84.0
70.88,74.0
70.89,65.0
70.9,78.0
70.91,92.0
70.92,88.0
70.93,67.0
70.94,68.0
70.95,67.0
70.96,78.0
70.97,78.0
70.98,71.0
70.99,81.0
71.0,79.0
71.01,59.0
71.02,78.0
71.03,65.0
71.04,60.0
71.05,68.0
71.06,67.0
71.07,87.0
71.08,64.0
71.09,90.0
71.1,69.0
71.11,80.0
71.12,75.0
71.13,78.0
71.14,85.0
71.15,74.0
71.16,78.0
71.17,91.0
71.18,70.0
71.19,62.0
71.2,73.0
71.21,64.0
71.22,99.0
71.23,74.0
71.24,59.0
71.25,76.0
71.26,71.0
71.27,83.0
71.28,70.0
71.29,83.0
71.3,63.0
71.31,69.0
71.32,71.0
71.33,74.0
71.34,67.0
71.35,73.0
71.36,75.0
71.37,80.0
71.38,78.0
71.39,69.0
71.4,66.0
71.41,68.0
71.42,85.0
71.43,76.0
71.44,78.0
71.45,68.0
71.46,78.0
71.47,80.0
71.48,58.0
71.49,69.0
71.5,73.0
71.51,65.0
71.52,66.0
71.53,79.0
71.54,64.0
71.55,88.0
71.56,72.0
71.57,64.0
71.58,77.0
71.59,66.0
71.6,65.0
71.61,71.0
71.62,69.0
71.63,73.0
71.64,67.0
71.65,75.0
71.66,66.0
71.67,76.0
71.68,68.0
71.69,87.0
71.7,64.0
71.71,54.0
71.72,61.0
71.73,72.0
71.74,69.0
71.75,76.0
71.76,77.0
71.77,77.0
71.78,74.0
71.79,87.0
71.8,72.0
71.81,98.0
71.82,67.0
71.83,83.0
71.84,71.0
71.85,75.0
71.86,69.0
71.87,87.0
71.88,74.0
71.89,68.0
71.9,63.0
71.91,74.0
71.92,81.0
71.93,67.0
71.94,83.0
71.95,63.0
71.96,71.0
71.97,66.0
71.98,64.0
71.99,61.0
72.0,73.0
72.01,61.0
72.02,87.0
72.03,75.0
72.04,74.0
72.05,67.0
72.06,84.0
72.07,82.0
72.08,75.0
72.09,76.0
72.1,80.0
72.11,67.0
72.12,75.0
72.13,86.0
72.14,105.0
72.15,65.0
72.16,72.0
72.17,78.0
72.18,76.0
72.19,75.0
72.2,66.0
72.21,89.0
72.22,71.0
72.23,94.0
72.24,82.0
72.25,70.0
72.26,87.0
72.27,78.0
72.28,73.0
72.29,77.0
72.3,64.0
72.31,79.0
72.32,79.0
72.33,89.0
72.34,72.0
72.35,72.0
72.36,80.0
72.37,73.0
72.38,79.0
72.39,69.0
72.4,83.0
72.41,86.0
72.42,67.0
72.43,71.0
72.44,81.0
72.45,80.0
72.46,81.0
72.47,82.0
72.48,77.0
72.49,75.0
72.5,85.0
72.51,72.0
72.52,80.0
72.53,106.0
72.54,95.0
72.55,85.0
72.56,94.0
72.57,75.0
72.58,72.0
72.59,77.0
72.6,67.0
72.61,65.0
72.62,68.0
72.63,72.0
72.64,67.0
72.65,90.0
72.66,80.0
72.67,78.0
72.68,71.0
72.69,78.0
72.7,67.0
72.71,81.0
72.72,72.0
72.73,76.0
72.74,72.0
72.75,73.0
72.76,76.0
72.77,87.0
72.78,96.0
72.79,73.0
72.8,85.0
72.81,75.0
72.82,68.0
72.83,63.0
72.84,79.0
72.85,85.0
72.86,75.0
72.87,84.0
72.88,80.0
72.89,81.0
72.9,76.0
72.91,54.0
72.92,75.0
72.93,71.0
72.94,61.0
72.95,64.0
72.96,73.0
72.97,67.0
72.98,78.0
72.99,73.0
73.0,69.0
73.01,80.0
73.02,76.0
73.03,72.0
73.04,70.0
73.05,72.0
73.06,76.0
73.07,86.0
73.08,84.0
73.09,68.0
73.1,82.0
73.11,61.0
73.12,69.0
73.13,80.0
73.14,68.0
73.15,83.0
73.16,77.0
73.17,79.0
73.18,80.0
73.19,71.0
73.2,82.0
73.21,68.0
73.22,68.0
73.23,76.0
73.24,73.0
73.25,69.0
73.26,85.0
73.27,71.0
73.28,65.0
73.29,67.0
73.3,70.0
73.31,74.0
73.32,61.0
73.33,49.0
73.34,77.0
73.35,58.0
73.36,73.0
73.37,79.0
73.38,76.0
73.39,55.0
73.4,77.0
73.41,79.0
73.42,70.0
73.43,87.0
73.44,64.0
73.45,81.0
73.46,68.0
73.47,83.0
73.48,81.0
73.49,70.0
73.5,68.0
73.51,63.0
73.52,80.0
73.53,68.0
73.54,61.0
73.55,85.0
73.56,76.0
73.57,84.0
73.58,81.0
73.59,73.0
73.6,74.0
73.61,80.0
73.62,71.0
73.63,77.0
73.64,60.0
73.65,81.0
73.66,75.0
73.67,79.0
73.68,78.0
73.69,94.0
73.7,66.0
73.71,86.0
73.72,80.0
73.73,66.0
73.74,68.0
73.75,80.0
73.76,73.0
73.77,81.0
73.78,74.0
73.79,72.0
73.8,69.0
73.81,72.0
73.82,89.0
73.83,64.0
73.84,83.0
73.85,81.0
73.86,78.0
73.87,84.0
73.88,80.0
73.89,69.0
73.9,64.0
73.91,79.0
73.92,78.0
73.93,74.0
73.94,71.0
73.95,71.0
73.96,69.0
73.97,62.0
73.98,72.0
73.99,70.0
74.0,78.0
74.01,67.0
74.02,69.0
74.03,78.0
74.04,74.0
74.05,72.0
74.06,76.0
74.07,73.0
74.08,70.0
74.09,55.0
74.1,67.0
74.11,82.0
74.12,66.0
74.13,79.0
74.14,69.0
74.15,75.0
74.16,69.0
74.17,71.0
74.18,72.0
74.19,91.0
74.2,79.0
74.21,73.0
74.22,79.0
74.23,74.0
74.24,59.0
74.25,73.0
74.26,74.0
74.27,58.0
74.28,71.0
74.29,76.0
74.3,80.0
74.31,79.0
74.32,64.0
74.33,71.0
74.34,65.0
74.35,91.0
74.36,71.0
74.37,76.0
74.38,65.0
74.39,94.0
74.4,81.0
74.41,73.0
74.42,79.0
74.43,60.0
74.44,61.0
74.45,86.0
74.46,79.0
74.47,75.0
74.48,72.0
74.49,77.0
74.5,62.0
74.51,72.0
74.52,73.0
74.53,72.0
74.54,87.0
74.55,78.0
74.56,66.0
74.57,63.0
74.58,80.0
74.59,76.0
74.6,71.0
74.61,72.0
74.62,65.0
74.63,80.0
74.64,65.0
74.65,71.0
74.66,65.0
74.67,87.0
74.68,74.0
74.69,79.0
74.7,60.0
74.71,89.0
74.72,70.0
74.73,66.0
74.74,61.0
74.75,82.0
74.76,74.0
74.77,62.0
74.78,56.0
74.79,63.0
74.8,77.0
74.81,66.0
74.82,69.0
74.83,71.0
74.84,60.0
74.85,66.0
74.86,73.0
74.87,86.0
74.88,61.0
74.89,55.0
74.9,82.0
74.91,70.0
74.92,71.0
74.93,68.0
74.94,75.0
74.95,75.0
74.96,70.0
74.97,66.0
74.98,71.0
74.99,54.0
75.0,75.0
75.01,73.0
75.02,73.0
75.03,81.0
75.04,77.0
75.05,70.0
75.06,65.0
75.07,71.0
75.08,76.0
75.09,89.0
75.1,67.0
75.11,74.0
75.12,64.0
75.13,85.0
75.14,72.0
75.15,69.0
75.16,47.0
75.17,85.0
75.18,71.0
75.19,63.0
75.2,72.0
75.21,70.0
75.22,60.0
75.23,74.0
75.24,61.0
75.25,76.0
75.26,72.0
75.27,78.0
75.28,76.0
75.29,75.0
75.3,57.0
75.31,71.0
75.32,67.0
75.33,74.0
75.34,68.0
75.35,62.0
75.36,75.0
75.37,71.0
75.38,76.0
75.39,77.0
75.4,70.0
75.41,68.0
75.42,84.0
75.43,83.0
75.44,71.0
75.45,89.0
75.46,66.0
75.47,79.0
75.48,66.0
75.49,80.0
75.5,62.0
75.51,74.0
75.52,80.0
75.53,66.0
75.54,86.0
75.55,91.0
75.56,97.0
75.57,84.0
75.58,82.0
75.59,62.0
75.6,67.0
75.61,90.0
75.62,72.0
75.63,69.0
75.64,81.0
75.65,85.0
75.66,87.0
75.67,68.0
75.68,82.0
75.69,77.0
75.7,73.0
75.71,76.0
75.72,56.0
75.73,70.0
75.74,79.0
75.75,81.0
75.76,68.0
75.77,60.0
75.78,66.0
75.79,62.0
75.8,63.0
75.81,85.0
75.82,72.0
75.83,67.0
75.84,59.0
75.85,72.0
75.86,54.0
75.87,83.0
75.88,74.0
75.89,78.0
75.9,68.0
75.91,57.0
75.92,73.0
75.93,69.0
75.94,72.0
75.95,76.0
75.96,63.0
75.97,64.0
75.98,90.0
75.99,68.0
76.0,82.0
76.01,72.0
76.02,73.0
76.03,86.0
76.04,68.0
76.05,76.0
76.06,64.0
76.07,70.0
76.08,59.0
76.09,90.0
76.1,70.0
76.11,73.0
76.12,74.0
76.13,81.0
76.14,76.0
76.15,76.0
76.16,70.0
76.17,85.0
76.18,84.0
76.19,71.0
76.2,72.0
76.21,71.0
76.22,81.0
76.23,61.0
76.24,56.0
76.25,74.0
76.26,67.0
76.27,58.0
76.28,81.0
76.29,70.0
76.3,72.0
76.31,72.0
76.32,75.0
76.33,84.0
76.34,72.0
76.35,73.0
76.36,66.0
76.37,59.0
76.38,74.0
76.39,79.0
76.4,86.0
76.41,74.0
76.42,78.0
76.43,78.0
76.44,69.0
76.45,80.0
76.46,87.0
76.47,64.0
76.48,68.0
76.49,83.0
76.5,56.0
76.51,58.0
76.52,60.0
76.53,75.0
76.54,69.0
76.55,78.0
76.56,67.0
76.57,52.0
76.58,65.0
76.59,78.0
76.6,71.0
76.61,71.0
76.62,67.0
76.63,85.0
76.64,61.0
76.65,65.0
76.66,60.0
76.67,75.0
76.68,66.0
76.69,72.0
76.7,68.0
76.71,60.0
76.72,70.0
76.73,66.0
76.74,67.0
76.75,61.0
76.76,77.0
76.77,73.0
76.78,62.0
76.79,92.0
76.8,66.0
76.81,66.0
76.82,87.0
76.83,65.0
76.84,65.0
76.85,64.0
76.86,75.0
76.87,63.0
76.88,84.0
76.89,69.0
76.9,74.0
76.91,66.0
76.92,54.0
76.93,71.0
76.94,75.0
76.95,60.0
76.96,74.0
76.97,65.0
76.98,73.0
76.99,70.0
77.0,78.0
77.01,71.0
77.02,67.0
77.03,52.0
77.04,84.0
77.05,66.0
77.06,72.0
77.07,82.0
77.08,61.0
77.09,82.0
77.1,78.0
77.11,48.0
77.12,71.0
77.13,71.0
77.14,75.0
77.15,59.0
77.16,73.0
77.17,81.0
77.18,82.0
77.19,84.0
77.2,77.0
77.21,66.0
77.22,62.0
77.23,74.0
77.24,80.0
77.25,83.0
77.26,70.0
77.27,78.0
77.28,81.0
77.29,74.0
77.3,82.0
77.31,70.0
77.32,72.0
77.33,78.0
77.34,60.0
77.35,74.0
77.36,75.0
77.37,69.0
77.38,73.0
77.39,72.0
77.4,57.0
77.41,64.0
77.42,76.0
77.43,95.0
77.44,69.0
77.45,77.0
77.46,79.0
77.47,76.0
77.48,90.0
77.49,63.0
77.5,73.0
77.51,85.0
77.52,87.0
77.53,78.0
77.54,80.0
77.55,84.0
77.56,64.0
77.57,74.0
77.58,75.0
77.59,60.0
77.6,65.0
77.61,81.0
77.62,77.0
77.63,75.0
77.64,82.0
77.65,74.0
77.66,66.0
77.67,65.0
77.68,76.0
77.69,69.0
77.7,78.0
77.71,59.0
77.72,72.0
77.73,59.0
77.74,68.0
77.75,69.0
77.76,72.0
77.77,71.0
77.78,69.0
77.79,79.0
77.8,64.0
77.81,67.0
77.82,72.0
77.83,61.0
77.84,79.0
77.85,67.0
77.86,71.0
77.87,59.0
77.88,74.0
77.89,73.0
77.9,86.0
77.91,71.0
77.92,69.0
77.93,72.0
77.94,79.0
77.95,81.0
77.96,76.0
77.97,81.0
77.98,83.0
77.99,87.0
78.0,77.0
78.01,72.0
78.02,72.0
78.03,90.0
78.04,61.0
78.05,69.0
78.06,66.0
78.07,68.0
78.08,66.0
78.09,81.0
78.1,71.0
78.11,73.0
78.12,87.0
78.13,74.0
78.14,61.0
78.15,77.0
78.16,68.0
78.17,65.0
78.18,87.0
78.19,77.0
78.2,77.0
78.21,76.0
78.22,71.0
78.23,66.0
78.24,72.0
78.25,80.0
78.26,74.0
78.27,68.0
78.28,69.0
78.29,77.0
78.3,75.0
78.31,75.0
78.32,71.0
78.33,63.0
78.34,61.0
78.35,74.0
78.36,84.0
78.37,67.0
78.38,58.0
78.39,59.0
78.4,62.0
78.41,82.0
78.42,65.0
78.43,87.0
78.44,84.0
78.45,64.0
78.46,52.0
78.47,73.0
78.48,73.0
78.49,62.0
78.5,73.0
78.51,63.0
78.52,75.0
78.53,70.0
78.54,80.0
78.55,69.0
78.56,79.0
78.57,82.0
78.58,73.0
78.59,78.0
78.6,70.0
78.61,81.0
78.62,63.0
78.63,79.0
78.64,84.0
78.65,75.0
78.66,90.0
78.67,72.0
78.68,92.0
78.69,69.0
78.7,73.0
78.71,83.0
78.72,76.0
78.73,78.0
78.74,84.0
78.75,69.0
78.76,69.0
78.77,60.0
78.78,74.0
78.79,78.0
78.8,71.0
78.81,69.0
78.82,69.0
78.83,77.0
78.84,74.0
78.85,65.0
78.86,88.0
78.87,89.0
78.88,84.0
78.89,66.0
78.9,66.0
78.91,85.0
78.92,73.0
78.93,56.0
78.94,64.0
78.95,74.0
78.96,70.0
78.97,66.0
78.98,60.0
78.99,64.0
79.0,71.0
79.01,81.0
79.02,69.0
79.03,67.0
79.04,63.0
79.05,71.0
79.06,73.0
79.07,71.0
79.08,88.0
79.09,64.0
79.1,75.0
79.11,68.0
79.12,86.0
79.13,83.0
79.14,74.0
79.15,65.0
79.16,68.0
79.17,63.0
79.18,87.0
79.19,91.0
79.2,72.0
79.21,71.0
79.22,65.0
79.23,69.0
79.24,68.0
79.25,71.0
79.26,71.0
79.27,60.0
79.28,66.0
79.29,72.0
79.3,66.0
79.31,71.0
79.32,83.0
79.33,70.0
79.34,69.0
79.35,57.0
79.36,66.0
79.37,86.0
79.38,65.0
79.39,78.0
79.4,79.0
79.41,59.0
79.42,69.0
79.43,72.0
79.44,69.0
79.45,68.0
79.46,87.0
79.47,76.0
79.48,51.0
79.49,72.0
79.5,64.0
79.51,67.0
79.52,54.0
79.53,71.0
79.54,84.0
79.55,64.0
79.56,69.0
79.57,74.0
79.58,72.0
79.59,76.0
79.6,65.0
79.61,68.0
79.62,75.0
79.63,65.0
79.64,69.0
79.65,71.0
79.66,81.0
79.67,62.0
79.68,92.0
79.69,70.0
79.7,65.0
79.71,74.0
79.72,65.0
79.73,70.0
79.74,84.0
79.75,60.0
79.76,54.0
79.77,75.0
79.78,67.0
79.79,56.0
79.8,80.0
79.81,80.0
79.82,69.0
79.83,80.0
79.84,74.0
79.85,80.0
79.86,70.0
79.87,73.0
79.88,73.0
79.89,63.0
79.9,83.0
79.91,60.0
79.92,84.0
79.93,67.0
79.94,74.0
79.95,53.0
79.96,65.0
79.97,79.0
79.98,77.0
79.99,86.0
80.0,70.0
80.01,47.0
80.02,64.0
80.03,70.0
80.04,67.0
80.05,78.0
80.06,55.0
80.07,66.0
80.08,67.0
80.09,62.0
80.1,72.0
80.11,62.0
80.12,76.0
80.13,72.0
80.14,76.0
80.15,74.0
80.16,86.0
80.17,63.0
80.18,74.0
80.19,84.0
80.2,73.0
80.21,71.0
80.22,70.0
80.23,72.0
80.24,65.0
80.25,79.0
80.26,73.0
80.27,56.0
80.28,71.0
80.29,76.0
80.3,66.0
80.31,75.0
80.32,87.0
80.33,66.0
80.34,52.0
80.35,60.0
80.36,72.0
80.37,68.0
80.38,63.0
80.39,68.0
80.4,92.0
80.41,74.0
80.42,67.0
80.43,78.0
80.44,76.0
80.45,73.0
80.46,59.0
80.47,62.0
80.48,71.0
80.49,70.0
80.5,71.0
80.51,85.0
80.52,73.0
80.53,78.0
80.54,75.0
80.55,78.0
80.56,64.0
80.57,84.0
80.58,71.0
80.59,72.0
80.6,73.0
80.61,75.0
80.62,76.0
80.63,80.0
80.64,85.0
80.65,79.0
80.66,56.0
80.67,65.0
80.68,77.0
80.69,75.0
80.7,66.0
80.71,77.0
80.72,71.0
80.73,79.0
80.74,81.0
80.75,65.0
80.76,76.0
80.77,83.0
80.78,76.0
80.79,69.0
80.8,68.0
80.81,91.0
80.82,78.0
80.83,62.0
80.84,80.0
80.85,69.0
80.86,74.0
80.87,71.0
80.88,70.0
80.89,70.0
80.9,72.0
80.91,71.0
80.92,80.0
80.93,94.0
80.94,70.0
80.95,89.0
80.96,72.0
80.97,78.0
80.98,67.0
80.99,64.0
81.0,65.0
81.01,84.0
81.02,76.0
81.03,78.0
81.04,70.0
81.05,87.0
81.06,75.0
81.07,68.0
81.08,75.0
81.09,85.0
81.1,79.0
81.11,82.0
81.12,66.0
81.13,70.0
81.14,79.0
81.15,79.0
81.16,80.0
81.17,62.0
81.18,61.0
81.19,78.0
81.2,70.0
81.21,65.0
81.22,74.0
81.23,62.0
81.24,60.0
81.25,65.0
81.26,72.0
81.27,69.0
81.28,48.0
81.29,67.0
81.3,65.0
81.31,80.0
81.32,63.0
81.33,75.0
81.34,71.0
81.35,83.0
81.36,77.0
81.37,61.0
81.38,62.0
81.39,72.0
81.4,63.0
81.41,76.0
81.42,67.0
81.43,77.0
81.44,63.0
81.45,69.0
81.46,56.0
81.47,65.0
81.48,66.0
81.49,79.0
81.5,69.0
81.51,62.0
81.52,90.0
81.53,58.0
81.54,48.0
81.55,65.0
81.56,90.0
81.57,70.0
81.58,77.0
81.59,73.0
81.6,71.0
81.61,77.0
81.62,80.0
81.63,74.0
81.64,61.0
81.65,68.0
81.66,81.0
81.67,70.0
81.68,74.0
81.69,61.0
81.7,86.0
81.71,83.0
81.72,81.0
81.73,58.0
81.74,51.0
81.75,66.0
81.76,73.0
81.77,72.0
81.78,63.0
81.79,72.0
81.8,74.0
81.81,77.0
81.82,70.0
81.83,65.0
81.84,71.0
81.85,64.0
81.86,76.0
81.87,78.0
81.88,83.0
81.89,65.0
81.9,74.0
81.91,63.0
81.92,77.0
81.93,73.0
81.94,69.0
81.95,71.0
81.96,72.0
81.97,84.0
81.98,79.0
81.99,79.0
82.0,83.0
82.01,75.0
82.02,89.0
82.03,77.0
82.04,72.0
82.05,73.0
82.06,65.0
82.07,54.0
82.08,85.0
82.09,71.0
82.1,83.0
82.11,74.0
82.12,79.0
82.13,80.0
82.14,81.0
82.15,60.0
82.16,89.0
82.17,72.0
82.18,62.0
82.19,65.0
82.2,68.0
82.21,77.0
82.22,67.0
82.23,66.0
82.24,83.0
82.25,93.0
82.26,63.0
82.27,74.0
82.28,71.0
82.29,69.0
82.3,82.0
82.31,72.0
82.32,77.0
82.33,64.0
82.34,76.0
82.35,84.0
82.36,74.0
82.37,64.0
82.38,76.0
82.39,68.0
82.4,67.0
82.41,77.0
82.42,80.0
82.43,81.0
82.44,70.0
82.45,96.0
82.46,69.0
82.47,75.0
82.48,83.0
82.49,67.0
82.5,83.0
82.51,68.0
82.52,64.0
82.53,83.0
82.54,73.0
82.55,71.0
82.56,62.0
82.57,74.0
82.58,73.0
82.59,80.0
82.6,77.0
82.61,71.0
82.62,70.0
82.63,70.0
82.64,74.0
82.65,82.0
82.66,87.0
82.67,82.0
82.68,62.0
82.69,71.0
82.7,68.0
82.71,59.0
82.72,67.0
82.73,57.0
82.74,52.0
82.75,80.0
82.76,68.0
82.77,60.0
82.78,63.0
82.79,67.0
82.8,86.0
82.81,75.0
82.82,79.0
82.83,75.0
82.84,75.0
82.85,76.0
82.86,73.0
82.87,93.0
82.88,66.0
82.89,64.0
82.9,80.0
82.91,61.0
82.92,83.0
82.93,80.0
82.94,75.0
82.95,73.0
82.96,74.0
82.97,78.0
82.98,65.0
82.99,77.0
83.0,83.0
83.01,69.0
83.02,87.0
83.03,73.0
83.04,67.0
83.05,58.0
83.06,49.0
83.07,63.0
83.08,80.0
83.09,88.0
83.1,70.0
83.11,71.0
83.12,78.0
83.13,70.0
83.14,79.0
83.15,83.0
83.16,63.0
83.17,66.0
83.18,72.0
83.19,71.0
83.2,78.0
83.21,75.0
83.22,63.0
83.23,85.0
83.24,74.0
83.25,75.0
83.26,75.0
83.27,66.0
83.28,60.0
83.29,49.0
83.3,83.0
83.31,66.0
83.32,80.0
83.33,73.0
83.34,69.0
83.35,65.0
83.36,68.0
83.37,70.0
83.38,78.0
83.39,67.0
83.4,70.0
83.41,63.0
83.42,70.0
83.43,70.0
83.44,84.0
83.45,83.0
83.46,71.0
83.47,67.0
83.48,56.0
83.49,56.0
83.5,86.0
83.51,66.0
83.52,68.0
83.53,66.0
83.54,76.0
83.55,77.0
83.56,64.0
83.57,81.0
83.58,72.0
83.59,77.0
83.6,61.0
83.61,61.0
83.62,60.0
83.63,72.0
83.64,78.0
83.65,57.0
83.66,76.0
83.67,88.0
83.68,68.0
83.69,80.0
83.7,51.0
83.71,70.0
83.72,63.0
83.73,65.0
83.74,66.0
83.75,63.0
83.76,71.0
83.77,66.0
83.78,68.0
83.79,63.0
83.8,83.0
83.81,84.0
83.82,59.0
83.83,65.0
83.84,88.0
83.85,73.0
83.86,58.0
83.87,70.0
83.88,72.0
83.89,80.0
83.9,70.0
83.91,63.0
83.92,62.0
83.93,85.0
83.94,81.0
83.95,73.0
83.96,68.0
83.97,59.0
83.98,64.0
83.99,80.0
84.0,68.0
84.01,74.0
84.02,80.0
84.03,87.0
84.04,74.0
84.05,83.0
84.06,70.0
84.07,79.0
84.08,65.0
84.09,85.0
84.1,56.0
84.11,84.0
84.12,74.0
84.13,76.0
84.14,52.0
84.15,67.0
84.16,74.0
84.17,80.0
84.18,85.0
84.19,86.0
84.2,65.0
84.21,63.0
84.22,61.0
84.23,68.0
84.24,81.0
84.25,74.0
84.26,71.0
84.27,63.0
84.28,70.0
84.29,54.0
84.3,67.0
84.31,79.0
84.32,71.0
84.33,83.0
84.34,70.0
84.35,75.0
84.36,66.0
84.37,73.0
84.38,82.0
84.39,73.0
84.4,57.0
84.41,64.0
84.42,70.0
84.43,67.0
84.44,84.0
84.45,93.0
84.46,74.0
84.47,87.0
84.48,86.0
84.49,85.0
84.5,76.0
84.51,81.0
84.52,68.0
84.53,75.0
84.54,60.0
84.55,67.0
84.56,75.0
84.57,68.0
84.58,65.0
84.59,67.0
84.6,75.0
84.61,75.0
84.62,71.0
84.63,86.0
84.64,68.0
84.65,55.0
84.66,62.0
84.67,70.0
84.68,75.0
84.69,56.0
84.7,72.0
84.71,90.0
84.72,76.0
84.73,51.0
84.74,71.0
84.75,76.0
84.76,66.0
84.77,71.0
84.78,57.0
84.79,66.0
84.8,70.0
84.81,80.0
84.82,88.0
84.83,65.0
84.84,53.0
84.85,82.0
84.86,79.0
84.87,70.0
84.88,65.0
84.89,64.0
84.9,62.0
84.91,55.0
84.92,73.0
84.93,70.0
84.94,72.0
84.95,65.0
84.96,77.0
84.97,80.0
84.98,62.0
84.99,70.0
85.0,67.0
85.01,73.0
85.02,74.0
85.03,66.0
85.04,74.0
85.05,67.0
85.06,65.0
85.07,67.0
85.08,73.0
85.09,78.0
85.1,85.0
85.11,79.0
85.12,75.0
85.13,79.0
85.14,80.0
85.15,95.0
85.16,68.0
85.17,61.0
85.18,74.0
85.19,73.0
85.2,90.0
85.21,73.0
85.22,57.0
85.23,53.0
85.24,75.0
85.25,80.0
85.26,81.0
85.27,89.0
85.28,69.0
85.29,72.0
85.3,70.0
85.31,73.0
85.32,82.0
85.33,81.0
85.34,64.0
85.35,77.0
85.36,90.0
85.37,79.0
85.38,69.0
85.39,52.0
85.4,65.0
85.41,77.0
85.42,65.0
85.43,71.0
85.44,65.0
85.45,72.0
85.46,88.0
85.47,70.0
85.48,60.0
85.49,61.0
85.5,73.0
85.51,69.0
85.52,65.0
85.53,73.0
85.54,85.0
85.55,77.0
85.56,68.0
85.57,74.0
85.58,72.0
85.59,81.0
85.6,86.0
85.61,79.0
85.62,69.0
85.63,87.0
85.64,68.0
85.65,65.0
85.66,55.0
85.67,72.0
85.68,57.0
85.69,80.0
85.7,71.0
85.71,77.0
85.72,66.0
85.73,83.0
85.74,88.0
85.75,70.0
85.76,76.0
85.77,68.0
85.78,74.0
85.79,62.0
85.8,59.0
85.81,77.0
85.82,72.0
85.83,70.0
85.84,64.0
85.85,64.0
85.86,63.0
85.87,65.0
85.88,71.0
85.89,56.0
85.9,65.0
85.91,70.0
85.92,61.0
85.93,66.0
85.94,76.0
85.95,61.0
85.96,67.0
85.97,77.0
85.98,80.0
85.99,71.0
86.0,70.0
86.01,80.0
86.02,83.0
86.03,83.0
86.04,67.0
86.05,57.0
86.06,88.0
86.07,60.0
86.08,68.0
86.09,77.0
86.1,67.0
86.11,67.0
86.12,66.0
86.13,78.0
86.14,53.0
86.15,72.0
86.16,71.0
86.17,58.0
86.18,72.0
86.19,71.0
86.2,50.0
86.21,63.0
86.22,58.0
86.23,72.0
86.24,71.0
86.25,72.0
86.26,76.0
86.27,75.0
86.28,69.0
86.29,64.0
86.3,67.0
86.31,61.0
86.32,73.0
86.33,70.0
86.34,62.0
86.35,63.0
86.36,64.0
86.37,62.0
86.38,67.0
86.39,94.0
86.4,76.0
86.41,75.0
86.42,69.0
86.43,70.0
86.44,60.0
86.45,77.0
86.46,79.0
86.47,69.0
86.48,75.0
86.49,73.0
86.5,79.0
86.51,84.0
86.52,76.0
86.53,54.0
86.54,65.0
86.55,73.0
86.56,64.0
86.57,67.0
86.58,86.0
86.59,66.0
86.6,77.0
86.61,70.0
86.62,80.0
86.63,82.0
86.64,87.0
86.65,50.0
86.66,60.0
86.67,71.0
86.68,63.0
86.69,64.0
86.7,71.0
86.71,69.0
86.72,77.0
86.73,74.0
86.74,68.0
86.75,80.0
86.76,81.0
86.77,70.0
86.78,75.0
86.79,77.0
86.8,65.0
86.81,76.0
86.82,70.0
86.83,67.0
86.84,99.0
86.85,75.0
86.86,75.0
86.87,66.0
86.88,65.0
86.89,65.0
86.9,66.0
86.91,78.0
86.92,70.0
86.93,73.0
86.94,73.0
86.95,76.0
86.96,87.0
86.97,80.0
86.98,72.0
86.99,70.0
87.0,74.0
87.01,85.0
87.02,69.0
87.03,61.0
87.04,67.0
87.05,73.0
87.06,78.0
87.07,73.0
87.08,63.0
87.09,65.0
87.1,71.0
87.11,68.0
87.12,79.0
87.13,70.0
87.14,57.0
87.15,66.0
87.16,94.0
87.17,63.0
87.18,63.0
87.19,76.0
87.2,71.0
87.21,68.0
87.22,83.0
87.23,73.0
87.24,79.0
87.25,77.0
87.26,74.0
87.27,77.0
87.28,68.0
87.29,62.0
87.3,76.0
87.31,65.0
87.32,79.0
87.33,78.0
87.34,72.0
87.35,75.0
87.36,66.0
87.37,67.0
87.38,64.0
87.39,73.0
87.4,74.0
87.41,72.0
87.42,84.0
87.43,70.0
87.44,64.0
87.45,67.0
87.46,71.0
87.47,71.0
87.48,69.0
87.49,64.0
87.5,74.0
87.51,63.0
87.52,61.0
87.53,69.0
87.54,80.0
87.55,65.0
87.56,79.0
87.57,64.0
87.58,61.0
87.59,63.0
87.6,57.0
87.61,70.0
87.62,68.0
87.63,72.0
87.64,73.0
87.65,65.0
87.66,69.0
87.67,74.0
87.68,73.0
87.69,80.0
87.7,60.0
87.71,51.0
87.72,77.0
87.73,61.0
87.74,74.0
87.75,59.0
87.76,81.0
87.77,78.0
87.78,68.0
87.79,73.0
87.8,65.0
87.81,73.0
87.82,75.0
87.83,54.0
87.84,66.0
87.85,61.0
87.86,73.0
87.87,67.0
87.88,77.0
87.89,71.0
87.9,58.0
87.91,68.0
87.92,77.0
87.93,87.0
87.94,66.0
87.95,72.0
87.96,55.0
87.97,59.0
87.98,61.0
87.99,95.0
88.0,69.0
88.01,63.0
88.02,69.0
88.03,69.0
88.04,80.0
88.05,78.0
88.06,86.0
88.07,74.0
88.08,70.0
88.09,71.0
88.1,69.0
88.11,80.0
88.12,63.0
88.13,63.0
88.14,75.0
88.15,77.0
88.16,84.0
88.17,70.0
88.18,64.0
88.19,60.0
88.2,70.0
88.21,69.0
88.22,68.0
88.23,78.0
88.24,70.0
88.25,68.0
88.26,59.0
88.27,81.0
88.28,70.0
88.29,75.0
88.3,62.0
88.31,77.0
88.32,82.0
88.33,66.0
88.34,99.0
88.35,68.0
88.36,68.0
88.37,79.0
88.38,77.0
88.39,62.0
88.4,73.0
88.41,70.0
88.42,69.0
88.43,80.0
88.44,69.0
88.45,72.0
88.46,77.0
88.47,73.0
88.48,84.0
88.49,77.0
88.5,70.0
88.51,79.0
88.52,64.0
88.53,69.0
88.54,67.0
88.55,72.0
88.56,82.0
88.57,63.0
88.58,75.0
88.59,84.0
88.6,65.0
88.61,98.0
88.62,77.0
88.63,64.0
88.64,69.0
88.65,60.0
88.66,77.0
88.67,82.0
88.68,62.0
88.69,76.0
88.7,62.0
88.71,60.0
88.72,73.0
88.73,58.0
88.74,71.0
88.75,83.0
88.76,69.0
88.77,62.0
88.78,76.0
88.79,65.0
88.8,76.0
88.81,64.0
88.82,71.0
88.83,78.0
88.84,68.0
88.85,63.0
88.86,72.0
88.87,83.0
88.88,59.0
88.89,64.0
88.9,91.0
88.91,65.0
88.92,80.0
88.93,75.0
88.94,75.0
88.95,63.0
88.96,78.0
88.97,70.0
88.98,71.0
88.99,62.0
89.0,53.0
89.01,69.0
89.02,69.0
89.03,69.0
89.04,77.0
89.05,87.0
89.06,80.0
89.07,72.0
89.08,79.0
89.09,64.0
89.1,69.0
89.11,61.0
89.12,67.0
89.13,76.0
89.14,65.0
89.15,71.0
89.16,60.0
89.17,69.0
89.18,73.0
89.19,73.0
89.2,72.0
89.21,72.0
89.22,57.0
89.23,81.0
89.24,73.0
89.25,69.0
89.26,77.0
89.27,57.0
89.28,80.0
89.29,63.0
89.3,65.0
89.31,77.0
89.32,77.0
89.33,63.0
89.34,76.0
89.35,59.0
89.36,68.0
89.37,87.0
89.38,84.0
89.39,86.0
89.4,71.0
89.41,78.0
89.42,68.0
89.43,92.0
89.44,71.0
89.45,73.0
89.46,68.0
89.47,78.0
89.48,63.0
89.49,80.0
89.5,76.0
89.51,73.0
89.52,82.0
89.53,77.0
89.54,88.0
89.55,78.0
89.56,90.0
89.57,55.0
89.58,78.0
89.59,68.0
89.6,79.0
89.61,58.0
89.62,57.0
89.63,65.0
89.64,73.0
89.65,74.0
89.66,65.0
89.67,61.0
89.68,77.0
89.69,79.0
89.7,65.0
89.71,66.0
89.72,74.0
89.73,77.0
89.74,67.0
89.75,73.0
89.76,67.0
89.77,68.0
89.78,61.0
89.79,72.0
89.8,83.0
89.81,64.0
89.82,69.0
89.83,73.0
89.84,65.0
89.85,64.0
89.86,80.0
89.87,69.0
89.88,67.0
89.89,70.0
89.9,86.0
89.91,83.0
89.92,84.0
89.93,75.0
89.94,72.0
89.95,93.0
89.96,77.0
89.97,79.0
89.98,64.0
89.99,77.0
90.0,75.0
