angle,intensity
5.0,115.0
5.01,104.0
5.02,121.0
5.03,125.0
5.04,123.0
5.05,118.0
5.06,106.0
5.07,127.0
5.08,99.0
5.09,112.0
5.1,122.0
5.11,140.0
5.12,124.0
5.13,123.0
5.14,105.0
5.15,101.0
5.16,117.0
5.17,133.0
5.18,123.0
5.19,134.0
5.2,115.0
5.21,102.0
5.22,103.0
5.23,131.0
5.24,121.0
5.25,120.0
5.26,96.0
5.27,104.0
5.28,126.0
5.29,100.0
5.3,88.0
5.31,119.0
5.32,122.0
5.33,88.0
5.34,115.0
5.35,114.0
5.36,109.0
5.37,111.0
5.38,135.0
5.39,94.0
5.4,120.0
5.41,112.0
5.42,135.0
5.43,130.0
5.44,106.0
5.45,118.0
5.46,124.0
5.47,138.0
5.48,123.0
5.49,117.0
5.5,96.0
5.51,120.0
5.52,118.0
5.53,123.0
5.54,103.0
5.55,121.0
5.56,125.0
5.57,123.0
5.58,135.0
5.59,142.0
5.6,124.0
5.61,122.0
5.62,116.0
5.63,125.0
5.64,109.0
5.65,126.0
5.66,125.0
5.67,108.0
5.68,108.0
5.69,113.0
5.7,110.0
5.71,101.0
5.72,133.0
5.73,126.0
5.74,109.0
5.75,118.0
5.76,131.0
5.77,124.0
5.78,127.0
5.79,148.0
5.8,102.0
5.81,141.0
5.82,124.0
5.83,118.0
5.84,120.0
5.85,117.0
5.86,130.0
5.87,122.0
5.88,112.0
5.89,105.0
5.9,135.0
5.91,104.0
5.92,123.0
5.93,117.0
5.94,135.0
5.95,125.0
5.96,115.0
5.97,109.0
5.98,101.0
5.99,125.0
6.0,124.0
6.01,110.0
6.02,119.0
6.03,113.0
6.04,104.0
6.05,101.0
6.06,123.0
6.07,120.0
6.08,117.0
6.09,114.0
6.1,113.0
6.11,125.0
6.12,101.0
6.13,111.0
6.14,110.0
6.15,134.0
6.16,108.0
6.17,121.0
6.18,125.0
6.19,105.0
6.2,134.0
6.21,135.0
6.22,142.0
6.23,115.0
6.24,138.0
6.25,134.0
6.26,124.0
6.27,128.0
6.28,114.0
6.29,129.0
6.3,134.0
6.31,124.0
6.32,122.0
6.33,124.0
6.34,118.0
6.35,144.0
6.36,119.0
6.37,115.0
6.38,148.0
6.39,132.0
6.4,130.0
6.41,132.0
6.42,155.0
6.43,142.0
6.44,119.0
6.45,136.0
6.46,118.0
6.47,125.0
6.48,133.0
6.49,119.0
6.5,138.0
6.51,108.0
6.52,115.0
6.53,130.0
6.54,123.0
6.55,139.0
6.56,142.0
6.57,122.0
6.58,126.0
6.59,130.0
6.6,146.0
6.61,123.0
6.62,126.0
6.63,136.0
6.64,153.0
6.65,137.0
6.66,119.0
6.67,146.0
6.68,121.0
6.69,127.0
6.7,137.0
6.71,104.0
6.72,136.0
6.73,133.0
6.74,117.0
6.75,137.0
6.76,121.0
6.77,141.0
6.78,120.0
6.79,138.0
6.8,109.0
6.81,119.0
6.82,121.0
6.83,145.0
6.84,115.0
6.85,139.0
6.86,134.0
6.87,128.0
6.88,133.0
6.89,128.0
6.9,139.0
6.91,116.0
6.92,150.0
6.93,123.0
6.94,115.0
6.95,136.0
6.96,137.0
6.97,144.0
6.98,131.0
6.99,127.0
7.0,126.0
7.01,110.0
7.02,138.0
7.03,131.0
7.04,129.0
7.05,133.0
7.06,146.0
7.07,145.0
7.08,142.0
7.09,164.0
7.1,142.0
7.11,119.0
7.12,142.0
7.13,133.0
7.14,140.0
7.15,117.0
7.16,135.0
7.17,111.0
7.18,147.0
7.19,160.0
7.2,141.0
7.21,120.0
7.22,129.0
7.23,148.0
7.24,138.0
7.25,140.0
7.26,144.0
7.27,126.0
7.28,139.0
7.29,139.0
7.3,159.0
7.31,144.0
7.32,152.0
7.33,130.0
7.34,149.0
7.35,148.0
7.36,147.0
7.37,136.0
7.38,136.0
7.39,155.0
7.4,121.0
7.41,144.0
7.42,128.0
7.43,141.0
7.44,146.0
7.45,131.0
7.46,142.0
7.47,117.0
7.48,147.0
7.49,148.0
7.5,140.0
7.51,159.0
7.52,133.0
7.53,146.0
7.54,136.0
7.55,160.0
7.56,154.0
7.57,142.0
7.58,147.0
7.59,146.0
7.6,154.0
7.61,162.0
7.62,135.0
7.63,145.0
7.64,132.0
7.65,181.0
7.66,140.0
7.67,142.0
7.68,148.0
7.69,148.0
7.7,145.0
7.71,163.0
7.72,143.0
7.73,140.0
7.74,137.0
7.75,129.0
7.76,140.0
7.77,139.0
7.78,165.0
7.79,141.0
7.8,149.0
7.81,145.0
7.82,146.0
7.83,153.0
7.84,141.0
7.85,137.0
7.86,153.0
7.87,136.0
7.88,130.0
7.89,137.0
7.9,166.0
7.91,128.0
7.92,128.0
7.93,145.0
7.94,157.0
7.95,128.0
7.96,138.0
7.97,131.0
7.98,123.0
7.99,134.0
8.0,138.0
8.01,137.0
8.02,145.0
8.03,145.0
8.04,138.0
8.05,167.0
8.06,139.0
8.07,180.0
8.08,140.0
8.09,145.0
8.1,155.0
8.11,148.0
8.12,140.0
8.13,144.0
8.14,141.0
8.15,143.0
8.16,152.0
8.17,142.0
8.18,142.0
8.19,151.0
8.2,128.0
8.21,163.0
8.22,178.0
8.23,143.0
8.24,132.0
8.25,152.0
8.26,146.0
8.27,163.0
8.28,153.0
8.29,140.0
8.3,141.0
8.31,128.0
8.32,127.0
8.33,161.0
8.34,141.0
8.35,166.0
8.36,150.0
8.37,145.0
8.38,129.0
8.39,148.0
8.4,134.0
8.41,147.0
8.42,139.0
8.43,185.0
8.44,133.0
8.45,152.0
8.46,143.0
8.47,147.0
8.48,144.0
8.49,133.0
8.5,139.0
8.51,138.0
8.52,158.0
8.53,154.0
8.54,146.0
8.55,144.0
8.56,150.0
8.57,125.0
8.58,159.0
8.59,142.0
8.6,161.0
8.61,150.0
8.62,124.0
8.63,148.0
8.64,127.0
8.65,158.0
8.66,132.0
8.67,122.0
8.68,146.0
8.69,122.0
8.7,139.0
8.71,142.0
8.72,131.0
8.73,142.0
8.74,162.0
8.75,134.0
8.76,139.0
8.77,134.0
8.78,131.0
8.79,142.0
8.8,130.0
8.81,146.0
8.82,133.0
8.83,155.0
8.84,143.0
8.85,162.0
8.86,140.0
8.87,136.0
8.88,115.0
8.89,138.0
8.9,115.0
8.91,146.0
8.92,137.0
8.93,137.0
8.94,136.0
8.95,137.0
8.96,139.0
8.97,139.0
8.98,145.0
8.99,165.0
9.0,140.0
9.01,162.0
9.02,164.0
9.03,149.0
9.04,142.0
9.05,139.0
9.06,162.0
9.07,150.0
9.08,149.0
9.09,145.0
9.1,154.0
9.11,132.0
9.12,138.0
9.13,126.0
9.14,120.0
9.15,169.0
9.16,159.0
9.17,143.0
9.18,145.0
9.19,146.0
9.2,143.0
9.21,156.0
9.22,132.0
9.23,132.0
9.24,137.0
9.25,128.0
9.26,141.0
9.27,132.0
9.28,144.0
9.29,140.0
9.3,150.0
9.31,128.0
9.32,134.0
9.33,151.0
9.34,134.0
9.35,152.0
9.36,139.0
9.37,175.0
9.38,132.0
9.39,153.0
9.4,143.0
9.41,127.0
9.42,126.0
9.43,161.0
9.44,131.0
9.45,131.0
9.46,129.0
9.47,135.0
9.48,164.0
9.49,153.0
9.5,142.0
9.51,139.0
9.52,122.0
9.53,170.0
9.54,148.0
9.55,131.0
9.56,149.0
9.57,123.0
9.58,152.0
9.59,141.0
9.6,135.0
9.61,148.0
9.62,135.0
9.63,157.0
9.64,135.0
9.65,142.0
9.66,130.0
9.67,137.0
9.68,146.0
9.69,133.0
9.7,154.0
9.71,160.0
9.72,128.0
9.73,135.0
9.74,156.0
9.75,134.0
9.76,160.0
9.77,159.0
9.78,159.0
9.79,156.0
9.8,141.0
9.81,151.0
9.82,148.0
9.83,154.0
9.84,153.0
9.85,139.0
9.86,169.0
9.87,151.0
9.88,151.0
9.89,136.0
9.9,119.0
9.91,163.0
9.92,156.0
9.93,127.0
9.94,123.0
9.95,148.0
9.96,164.0
9.97,135.0
9.98,142.0
9.99,141.0
10.0,143.0
10.01,151.0
10.02,170.0
10.03,114.0
10.04,158.0
10.05,156.0
10.06,149.0
10.07,191.0
10.08,125.0
10.09,125.0
10.1,144.0
10.11,145.0
10.12,140.0
10.13,135.0
10.14,148.0
10.15,155.0
10.16,154.0
10.17,142.0
10.18,146.0
10.19,151.0
10.2,156.0
10.21,158.0
10.22,147.0
10.23,148.0
10.24,154.0
10.25,177.0
10.26,151.0
10.27,149.0
10.28,151.0
10.29,148.0
10.3,146.0
10.31,132.0
10.32,144.0
10.33,150.0
10.34,157.0
10.35,166.0
10.36,184.0
10.37,144.0
10.38,164.0
10.39,148.0
10.4,148.0
10.41,147.0
10.42,149.0
10.43,137.0
10.44,163.0
10.45,143.0
10.46,166.0
10.47,159.0
10.48,154.0
10.49,144.0
10.5,172.0
10.51,153.0
10.52,170.0
10.53,155.0
10.54,149.0
10.55,148.0
10.56,180.0
10.57,135.0
10.58,160.0
10.59,144.0
10.6,168.0
10.61,144.0
10.62,157.0
10.63,147.0
10.64,156.0
10.65,158.0
10.66,147.0
10.67,144.0
10.68,133.0
10.69,173.0
10.7,124.0
10.71,146.0
10.72,143.0
10.73,144.0
10.74,139.0
10.75,176.0
10.76,121.0
10.77,182.0
10.78,164.0
10.79,166.0
10.8,157.0
10.81,139.0
10.82,152.0
10.83,157.0
10.84,124.0
10.85,135.0
10.86,145.0
10.87,155.0
10.88,169.0
10.89,144.0
10.9,177.0
10.91,169.0
10.92,170.0
10.93,188.0
10.94,168.0
10.95,153.0
10.96,157.0
10.97,129.0
10.98,139.0
10.99,156.0
11.0,155.0
11.01,161.0
11.02,147.0
11.03,162.0
11.04,173.0
11.05,147.0
11.06,153.0
11.07,177.0
11.08,120.0
11.09,160.0
11.1,154.0
11.11,149.0
11.12,142.0
11.13,147.0
11.14,181.0
11.15,158.0
11.16,139.0
11.17,145.0
11.18,156.0
11.19,150.0
11.2,170.0
11.21,171.0
11.22,159.0
11.23,170.0
11.24,148.0
11.25,168.0
11.26,178.0
11.27,163.0
11.28,148.0
11.29,159.0
11.3,148.0
11.31,143.0
11.32,169.0
11.33,149.0
11.34,170.0
11.35,142.0
11.36,140.0
11.37,175.0
11.38,174.0
11.39,152.0
11.4,162.0
11.41,170.0
11.42,164.0
11.43,155.0
11.44,174.0
11.45,178.0
11.46,146.0
11.47,174.0
11.48,160.0
11.49,178.0
11.5,170.0
11.51,151.0
11.52,162.0
11.53,153.0
11.54,169.0
11.55,154.0
11.56,152.0
11.57,141.0
11.58,155.0
11.59,170.0
11.6,156.0
11.61,124.0
11.62,170.0
11.63,177.0
11.64,150.0
11.65,147.0
11.66,151.0
11.67,155.0
11.68,169.0
11.69,126.0
11.7,146.0
11.71,151.0
11.72,140.0
11.73,181.0
11.74,161.0
11.75,157.0
11.76,162.0
11.77,181.0
11.78,168.0
11.79,151.0
11.8,171.0
11.81,146.0
11.82,145.0
11.83,144.0
11.84,163.0
11.85,133.0
11.86,144.0
11.87,153.0
11.88,162.0
11.89,183.0
11.9,187.0
11.91,136.0
11.92,170.0
11.93,153.0
11.94,157.0
11.95,161.0
11.96,159.0
11.97,152.0
11.98,160.0
11.99,166.0
12.0,135.0
12.01,167.0
12.02,167.0
12.03,164.0
12.04,166.0
12.05,161.0
12.06,159.0
12.07,145.0
12.08,155.0
12.09,175.0
12.1,181.0
12.11,149.0
12.12,157.0
12.13,149.0
12.14,165.0
12.15,163.0
12.16,153.0
12.17,139.0
12.18,183.0
12.19,171.0
12.2,152.0
12.21,173.0
12.22,157.0
12.23,174.0
12.24,160.0
12.25,186.0
12.26,170.0
12.27,166.0
12.28,154.0
12.29,183.0
12.3,151.0
12.31,169.0
12.32,149.0
12.33,169.0
12.34,165.0
12.35,154.0
12.36,132.0
12.37,157.0
12.38,173.0
12.39,159.0
12.4,172.0
12.41,142.0
12.42,178.0
12.43,172.0
12.44,152.0
12.45,159.0
12.46,164.0
12.47,160.0
12.48,173.0
12.49,152.0
12.5,180.0
12.51,180.0
12.52,164.0
12.53,166.0
12.54,155.0
12.55,167.0
12.56,166.0
12.57,182.0
12.58,160.0
12.59,148.0
12.6,163.0
12.61,141.0
12.62,183.0
12.63,155.0
12.64,156.0
12.65,158.0
12.66,158.0
12.67,149.0
12.68,151.0
12.69,146.0
12.7,172.0
12.71,183.0
12.72,164.0
12.73,159.0
12.74,148.0
12.75,151.0
12.76,170.0
12.77,178.0
12.78,164.0
12.79,168.0
12.8,167.0
12.81,184.0
12.82,161.0
12.83,137.0
12.84,167.0
12.85,163.0
12.86,163.0
12.87,183.0
12.88,160.0
12.89,176.0
12.9,176.0
12.91,144.0
12.92,167.0
12.93,167.0
12.94,143.0
12.95,179.0
12.96,173.0
12.97,176.0
12.98,148.0
12.99,160.0
13.0,171.0
13.01,153.0
13.02,161.0
13.03,162.0
13.04,158.0
13.05,137.0
13.06,164.0
13.07,164.0
13.08,181.0
13.09,174.0
13.1,152.0
13.11,158.0
13.12,165.0
13.13,172.0
13.14,151.0
13.15,170.0
13.16,170.0
13.17,157.0
13.18,149.0
13.19,165.0
13.2,175.0
13.21,169.0
13.22,176.0
13.23,170.0
13.24,148.0
13.25,179.0
13.26,167.0
13.27,171.0
13.28,166.0
13.29,189.0
13.3,169.0
13.31,152.0
13.32,156.0
13.33,159.0
13.34,155.0
13.35,151.0
13.36,158.0
13.37,176.0
13.38,169.0
13.39,167.0
13.4,158.0
13.41,163.0
13.42,172.0
13.43,161.0
13.44,158.0
13.45,173.0
13.46,146.0
13.47,158.0
13.48,163.0
13.49,167.0
13.5,159.0
13.51,160.0
13.52,161.0
13.53,164.0
13.54,137.0
13.55,174.0
13.56,164.0
13.57,180.0
13.58,168.0
13.59,159.0
13.6,194.0
13.61,159.0
13.62,169.0
13.63,166.0
13.64,158.0
13.65,163.0
13.66,163.0
13.67,162.0
13.68,174.0
13.69,176.0
13.7,154.0
13.71,178.0
13.72,147.0
13.73,169.0
13.74,180.0
13.75,147.0
13.76,172.0
13.77,182.0
13.78,178.0
13.79,167.0
13.8,163.0
13.81,163.0
13.82,164.0
13.83,189.0
13.84,147.0
13.85,161.0
13.86,145.0
13.87,166.0
13.88,182.0
13.89,158.0
13.9,129.0
13.91,175.0
13.92,159.0
13.93,176.0
13.94,160.0
13.95,152.0
13.96,178.0
13.97,171.0
13.98,170.0
13.99,160.0
14.0,169.0
14.01,180.0
14.02,164.0
14.03,160.0
14.04,176.0
14.05,153.0
14.06,183.0
14.07,157.0
14.08,173.0
14.09,159.0
14.1,185.0
14.11,170.0
14.12,174.0
14.13,180.0
14.14,175.0
14.15,151.0
14.16,183.0
14.17,177.0
14.18,145.0
14.19,179.0
14.2,148.0
14.21,166.0
14.22,159.0
14.23,158.0
14.24,151.0
14.25,157.0
14.26,172.0
14.27,166.0
14.28,167.0
14.29,160.0
14.3,178.0
14.31,184.0
14.32,176.0
14.33,164.0
14.34,168.0
14.35,148.0
14.36,145.0
14.37,178.0
14.38,143.0
14.39,165.0
14.4,172.0
14.41,161.0
14.42,160.0
14.43,167.0
14.44,142.0
14.45,204.0
14.46,166.0
14.47,145.0
14.48,169.0
14.49,178.0
14.5,158.0
14.51,163.0
14.52,169.0
14.53,161.0
14.54,149.0
14.55,163.0
14.56,164.0
14.57,145.0
14.58,156.0
14.59,164.0
14.6,156.0
14.61,180.0
14.62,153.0
14.63,178.0
14.64,186.0
14.65,155.0
14.66,163.0
14.67,177.0
14.68,151.0
14.69,163.0
14.7,183.0
14.71,162.0
14.72,176.0
14.73,149.0
14.74,167.0
14.75,162.0
14.76,185.0
14.77,169.0
14.78,155.0
14.79,167.0
14.8,178.0
14.81,149.0
14.82,171.0
14.83,161.0
14.84,184.0
14.85,179.0
14.86,159.0
14.87,174.0
14.88,153.0
14.89,176.0
14.9,176.0
14.91,180.0
14.92,172.0
14.93,141.0
14.94,183.0
14.95,166.0
14.96,179.0
14.97,176.0
14.98,166.0
14.99,162.0
15.0,194.0
15.01,161.0
15.02,156.0
15.03,165.0
15.04,176.0
15.05,146.0
15.06,152.0
15.07,167.0
15.08,165.0
15.09,179.0
15.1,143.0
15.11,174.0
15.12,191.0
15.13,156.0
15.14,159.0
15.15,175.0
15.16,161.0
15.17,175.0
15.18,190.0
15.19,180.0
15.2,144.0
15.21,159.0
15.22,193.0
15.23,155.0
15.24,187.0
15.25,136.0
15.26,168.0
15.27,161.0
15.28,182.0
15.29,158.0
15.3,172.0
15.31,142.0
15.32,182.0
15.33,211.0
15.34,147.0
15.35,152.0
15.36,187.0
15.37,164.0
15.38,197.0
15.39,161.0
15.4,176.0
15.41,147.0
15.42,177.0
15.43,160.0
15.44,173.0
15.45,158.0
15.46,157.0
15.47,177.0
15.48,182.0
15.49,164.0
15.5,182.0
15.51,164.0
15.52,183.0
15.53,166.0
15.54,157.0
15.55,163.0
15.56,182.0
15.57,158.0
15.58,169.0
15.59,193.0
15.6,164.0
15.61,177.0
15.62,176.0
15.63,165.0
15.64,137.0
15.65,154.0
15.66,186.0
15.67,157.0
15.68,175.0
15.69,141.0
15.7,165.0
15.71,187.0
15.72,170.0
15.73,160.0
15.74,185.0
15.75,173.0
15.76,180.0
15.77,190.0
15.78,151.0
15.79,166.0
15.8,170.0
15.81,172.0
15.82,135.0
15.83,187.0
15.84,157.0
15.85,162.0
15.86,174.0
15.87,174.0
15.88,153.0
15.89,174.0
15.9,178.0
15.91,155.0
15.92,173.0
15.93,156.0
15.94,183.0
15.95,172.0
15.96,169.0
15.97,151.0
15.98,169.0
15.99,168.0
16.0,159.0
16.01,161.0
16.02,173.0
16.03,176.0
16.04,164.0
16.05,170.0
16.06,158.0
16.07,171.0
16.08,186.0
16.09,182.0
16.1,167.0
16.11,168.0
16.12,169.0
16.13,191.0
16.14,200.0
16.15,196.0
16.16,164.0
16.17,180.0
16.18,179.0
16.19,185.0
16.2,174.0
16.21,159.0
16.22,181.0
16.23,165.0
16.24,151.0
16.25,189.0
16.26,146.0
16.27,181.0
16.28,165.0
16.29,185.0
16.3,178.0
16.31,154.0
16.32,181.0
16.33,151.0
16.34,182.0
16.35,167.0
16.36,168.0
16.37,177.0
16.38,201.0
16.39,172.0
16.4,166.0
16.41,179.0
16.42,170.0
16.43,187.0
16.44,168.0
16.45,174.0
16.46,143.0
16.47,169.0
16.48,177.0
16.49,187.0
16.5,188.0
16.51,175.0
16.52,187.0
16.53,178.0
16.54,198.0
16.55,178.0
16.56,162.0
16.57,178.0
16.58,177.0
16.59,173.0
16.6,171.0
16.61,168.0
16.62,172.0
16.63,165.0
16.64,156.0
16.65,202.0
16.66,158.0
16.67,177.0
16.68,147.0
16.69,175.0
16.7,173.0
16.71,179.0
16.72,160.0
16.73,183.0
16.74,166.0
16.75,167.0
16.76,171.0
16.77,181.0
16.78,160.0
16.79,160.0
16.8,172.0
16.81,154.0
16.82,145.0
16.83,177.0
16.84,185.0
16.85,169.0
16.86,194.0
16.87,164.0
16.88,161.0
16.89,169.0
16.9,171.0
16.91,180.0
16.92,190.0
16.93,154.0
16.94,175.0
16.95,181.0
16.96,176.0
16.97,193.0
16.98,206.0
16.99,163.0
17.0,187.0
17.01,167.0
17.02,188.0
17.03,199.0
17.04,154.0
17.05,168.0
17.06,176.0
17.07,157.0
17.08,176.0
17.09,171.0
17.1,171.0
17.11,177.0
17.12,182.0
17.13,179.0
17.14,168.0
17.15,183.0
17.16,180.0
17.17,185.0
17.18,157.0
17.19,186.0
17.2,180.0
17.21,187.0
17.22,169.0
17.23,180.0
17.24,172.0
17.25,183.0
17.26,171.0
17.27,159.0
17.28,174.0
17.29,168.0
17.3,180.0
17.31,184.0
17.32,177.0
17.33,189.0
17.34,175.0
17.35,166.0
17.36,183.0
17.37,161.0
17.38,174.0
17.39,153.0
17.4,187.0
17.41,157.0
17.42,176.0
17.43,168.0
17.44,170.0
17.45,145.0
17.46,155.0
17.47,185.0
17.48,166.0
17.49,174.0
17.5,172.0
17.51,189.0
17.52,164.0
17.53,175.0
17.54,183.0
17.55,154.0
17.56,193.0
17.57,171.0
17.58,164.0
17.59,181.0
17.6,177.0
17.61,179.0
17.62,153.0
17.63,179.0
17.64,176.0
17.65,174.0
17.66,181.0
17.67,161.0
17.68,180.0
17.69,181.0
17.7,155.0
17.71,178.0
17.72,193.0
17.73,154.0
17.74,170.0
17.75,169.0
17.76,167.0
17.77,177.0
17.78,175.0
17.79,181.0
17.8,190.0
17.81,185.0
17.82,160.0
17.83,166.0
17.84,169.0
17.85,155.0
17.86,176.0
17.87,190.0
17.88,179.0
17.89,193.0
17.9,206.0
17.91,174.0
17.92,180.0
17.93,180.0
17.94,165.0
17.95,159.0
17.96,182.0
17.97,194.0
17.98,158.0
17.99,191.0
18.0,192.0
18.01,172.0
18.02,185.0
18.03,170.0
18.04,175.0
18.05,192.0
18.06,188.0
18.07,162.0
18.08,176.0
18.09,161.0
18.1,204.0
18.11,179.0
18.12,179.0
18.13,185.0
18.14,162.0
18.15,171.0
18.16,191.0
18.17,179.0
18.18,175.0
18.19,177.0
18.2,181.0
18.21,187.0
18.22,177.0
18.23,163.0
18.24,162.0
18.25,179.0
18.26,190.0
18.27,158.0
18.28,167.0
18.29,169.0
18.3,179.0
18.31,190.0
18.32,188.0
18.33,175.0
18.34,181.0
18.35,178.0
18.36,189.0
18.37,151.0
18.38,197.0
18.39,185.0
18.4,176.0
18.41,186.0
18.42,168.0
18.43,182.0
18.44,170.0
18.45,179.0
18.46,183.0
18.47,170.0
18.48,178.0
18.49,200.0
18.5,190.0
18.51,169.0
18.52,185.0
18.53,172.0
18.54,182.0
18.55,173.0
18.56,176.0
18.57,180.0
18.58,166.0
18.59,175.0
18.6,200.0
18.61,196.0
18.62,164.0
18.63,152.0
18.64,165.0
18.65,176.0
18.66,188.0
18.67,165.0
18.68,196.0
18.69,162.0
18.7,172.0
18.71,161.0
18.72,177.0
18.73,203.0
18.74,195.0
18.75,178.0
18.76,162.0
18.77,173.0
18.78,178.0
18.79,210.0
18.8,164.0
18.81,179.0
18.82,190.0
18.83,188.0
18.84,196.0
18.85,181.0
18.86,173.0
18.87,185.0
18.88,182.0
18.89,197.0
18.9,170.0
18.91,183.0
18.92,181.0
18.93,169.0
18.94,155.0
18.95,165.0
18.96,171.0
18.97,164.0
18.98,202.0
18.99,200.0
19.0,182.0
19.01,184.0
19.02,180.0
19.03,169.0
19.04,171.0
19.05,170.0
19.06,210.0
19.07,170.0
19.08,166.0
19.09,172.0
19.1,173.0
19.11,166.0
19.12,168.0
19.13,202.0
19.14,189.0
19.15,164.0
19.16,178.0
19.17,168.0
19.18,179.0
19.19,198.0
19.2,191.0
19.21,172.0
19.22,175.0
19.23,164.0
19.24,187.0
19.25,186.0
19.26,183.0
19.27,149.0
19.28,162.0
19.29,200.0
19.3,187.0
19.31,180.0
19.32,188.0
19.33,184.0
19.34,164.0
19.35,177.0
19.36,176.0
19.37,187.0
19.38,186.0
19.39,185.0
19.4,171.0
19.41,172.0
19.42,180.0
19.43,168.0
19.44,197.0
19.45,177.0
19.46,172.0
19.47,190.0
19.48,181.0
19.49,148.0
19.5,163.0
19.51,175.0
19.52,186.0
19.53,182.0
19.54,170.0
19.55,166.0
19.56,179.0
19.57,195.0
19.58,175.0
19.59,185.0
19.6,192.0
19.61,166.0
19.62,202.0
19.63,173.0
19.64,189.0
19.65,179.0
19.66,199.0
19.67,170.0
19.68,184.0
19.69,182.0
19.7,194.0
19.71,171.0
19.72,168.0
19.73,156.0
19.74,172.0
19.75,172.0
19.76,180.0
19.77,198.0
19.78,183.0
19.79,181.0
19.8,179.0
19.81,183.0
19.82,184.0
19.83,184.0
19.84,189.0
19.85,169.0
19.86,174.0
19.87,191.0
19.88,187.0
19.89,171.0
19.9,206.0
19.91,197.0
19.92,174.0
19.93,196.0
19.94,181.0
19.95,179.0
19.96,183.0
19.97,188.0
19.98,184.0
19.99,197.0
20.0,187.0
20.01,176.0
20.02,183.0
20.03,186.0
20.04,187.0
20.05,203.0
20.06,178.0
20.07,184.0
20.08,211.0
20.09,180.0
20.1,184.0
20.11,193.0
20.12,197.0
20.13,185.0
20.14,182.0
20.15,183.0
20.16,173.0
20.17,172.0
20.18,187.0
20.19,201.0
20.2,168.0
20.21,165.0
20.22,191.0
20.23,180.0
20.24,177.0
20.25,167.0
20.26,172.0
20.27,176.0
20.28,193.0
20.29,169.0
20.3,180.0
20.31,174.0
20.32,168.0
20.33,172.0
20.34,160.0
20.35,178.0
20.36,192.0
20.37,200.0
20.38,172.0
20.39,163.0
20.4,169.0
20.41,181.0
20.42,168.0
20.43,176.0
20.44,203.0
20.45,157.0
20.46,172.0
20.47,215.0
20.48,184.0
20.49,203.0
20.5,187.0
20.51,193.0
20.52,188.0
20.53,174.0
20.54,181.0
20.55,181.0
20.56,194.0
20.57,224.0
20.58,206.0
20.59,210.0
20.6,183.0
20.61,164.0
20.62,177.0
20.63,193.0
20.64,177.0
20.65,190.0
20.66,201.0
20.67,170.0
20.68,167.0
20.69,197.0
20.7,151.0
20.71,198.0
20.72,184.0
20.73,174.0
20.74,188.0
20.75,193.0
20.76,171.0
20.77,173.0
20.78,195.0
20.79,166.0
20.8,205.0
20.81,167.0
20.82,181.0
20.83,183.0
20.84,187.0
20.85,164.0
20.86,181.0
20.87,179.0
20.88,187.0
20.89,184.0
20.9,203.0
20.91,191.0
20.92,197.0
20.93,211.0
20.94,198.0
20.95,211.0
20.96,171.0
20.97,194.0
20.98,185.0
20.99,192.0
21.0,170.0
21.01,172.0
21.02,217.0
21.03,207.0
21.04,199.0
21.05,176.0
21.06,183.0
21.07,193.0
21.08,199.0
21.09,206.0
21.1,181.0
21.11,207.0
21.12,188.0
21.13,208.0
21.14,181.0
21.15,198.0
21.16,161.0
21.17,173.0
21.18,189.0
21.19,197.0
21.2,180.0
21.21,183.0
21.22,166.0
21.23,176.0
21.24,169.0
21.25,198.0
21.26,168.0
21.27,167.0
21.28,178.0
21.29,182.0
21.3,188.0
21.31,169.0
21.32,203.0
21.33,194.0
21.34,212.0
21.35,202.0
21.36,198.0
21.37,188.0
21.38,188.0
21.39,181.0
21.4,177.0
21.41,197.0
21.42,178.0
21.43,170.0
21.44,191.0
21.45,169.0
21.46,181.0
21.47,199.0
21.48,185.0
21.49,194.0
21.5,169.0
21.51,201.0
21.52,193.0
21.53,201.0
21.54,200.0
21.55,171.0
21.56,164.0
21.57,190.0
21.58,198.0
21.59,198.0
21.6,192.0
21.61,196.0
21.62,209.0
21.63,199.0
21.64,180.0
21.65,203.0
21.66,196.0
21.67,205.0
21.68,185.0
21.69,187.0
21.7,207.0
21.71,161.0
21.72,219.0
21.73,206.0
21.74,214.0
21.75,162.0
21.76,185.0
21.77,186.0
21.78,169.0
21.79,194.0
21.8,180.0
21.81,196.0
21.82,178.0
21.83,205.0
21.84,177.0
21.85,181.0
21.86,194.0
21.87,178.0
21.88,195.0
21.89,200.0
21.9,183.0
21.91,193.0
21.92,201.0
21.93,177.0
21.94,166.0
21.95,211.0
21.96,177.0
21.97,190.0
21.98,163.0
21.99,189.0
22.0,214.0
22.01,216.0
22.02,179.0
22.03,179.0
22.04,196.0
22.05,171.0
22.06,181.0
22.07,168.0
22.08,212.0
22.09,192.0
22.1,204.0
22.11,214.0
22.12,191.0
22.13,178.0
22.14,189.0
22.15,185.0
22.16,182.0
22.17,199.0
22.18,197.0
22.19,186.0
22.2,218.0
22.21,191.0
22.22,179.0
22.23,186.0
22.24,185.0
22.25,212.0
22.26,164.0
22.27,198.0
22.28,169.0
22.29,195.0
22.3,196.0
22.31,209.0
22.32,187.0
22.33,183.0
22.34,177.0
22.35,203.0
22.36,192.0
22.37,200.0
22.38,211.0
22.39,201.0
22.4,208.0
22.41,183.0
22.42,209.0
22.43,195.0
22.44,184.0
22.45,200.0
22.46,195.0
22.47,204.0
22.48,181.0
22.49,179.0
22.5,185.0
22.51,177.0
22.52,214.0
22.53,212.0
22.54,184.0
22.55,197.0
22.56,193.0
22.57,182.0
22.58,186.0
22.59,200.0
22.6,196.0
22.61,151.0
22.62,177.0
22.63,202.0
22.64,209.0
22.65,178.0
22.66,196.0
22.67,159.0
22.68,180.0
22.69,175.0
22.7,190.0
22.71,222.0
22.72,194.0
22.73,206.0
22.74,222.0
22.75,188.0
22.76,194.0
22.77,163.0
22.78,194.0
22.79,191.0
22.8,184.0
22.81,195.0
22.82,217.0
22.83,173.0
22.84,164.0
22.85,176.0
22.86,202.0
22.87,177.0
22.88,179.0
22.89,183.0
22.9,161.0
22.91,171.0
22.92,168.0
22.93,211.0
22.94,188.0
22.95,173.0
22.96,180.0
22.97,183.0
22.98,188.0
22.99,204.0
23.0,174.0
23.01,209.0
23.02,165.0
23.03,163.0
23.04,162.0
23.05,186.0
23.06,180.0
23.07,184.0
23.08,178.0
23.09,178.0
23.1,192.0
23.11,191.0
23.12,185.0
23.13,177.0
23.14,181.0
23.15,174.0
23.16,208.0
23.17,196.0
23.18,222.0
23.19,208.0
23.2,190.0
23.21,184.0
23.22,209.0
23.23,208.0
23.24,192.0
23.25,192.0
23.26,184.0
23.27,200.0
23.28,176.0
23.29,186.0
23.3,195.0
23.31,194.0
23.32,198.0
23.33,204.0
23.34,188.0
23.35,203.0
23.36,164.0
23.37,186.0
23.38,179.0
23.39,190.0
23.4,210.0
23.41,182.0
23.42,174.0
23.43,176.0
23.44,215.0
23.45,168.0
23.46,235.0
23.47,203.0
23.48,200.0
23.49,177.0
23.5,196.0
23.51,212.0
23.52,184.0
23.53,209.0
23.54,206.0
23.55,178.0
23.56,204.0
23.57,195.0
23.58,179.0
23.59,190.0
23.6,185.0
23.61,197.0
23.62,199.0
23.63,187.0
23.64,187.0
23.65,191.0
23.66,189.0
23.67,193.0
23.68,193.0
23.69,179.0
23.7,223.0
23.71,175.0
23.72,212.0
23.73,206.0
23.74,199.0
23.75,171.0
23.76,206.0
23.77,190.0
23.78,207.0
23.79,183.0
23.8,184.0
23.81,180.0
23.82,224.0
23.83,179.0
23.84,199.0
23.85,202.0
23.86,218.0
23.87,173.0
23.88,173.0
23.89,199.0
23.9,187.0
23.91,193.0
23.92,207.0
23.93,202.0
23.94,199.0
23.95,192.0
23.96,199.0
23.97,187.0
23.98,195.0
23.99,176.0
24.0,194.0
24.01,200.0
24.02,200.0
24.03,185.0
24.04,207.0
24.05,202.0
24.06,219.0
24.07,221.0
24.08,191.0
24.09,178.0
24.1,199.0
24.11,243.0
24.12,216.0
24.13,203.0
24.14,234.0
24.15,249.0
24.16,230.0
24.17,241.0
24.18,236.0
24.19,248.0
24.2,232.0
24.21,255.0
24.22,221.0
24.23,236.0
24.24,230.0
24.25,209.0
24.26,235.0
24.27,234.0
24.28,213.0
24.29,239.0
24.3,199.0
24.31,214.0
24.32,189.0
24.33,216.0
24.34,193.0
24.35,224.0
24.36,186.0
24.37,202.0
24.38,200.0
24.39,193.0
24.4,197.0
24.41,202.0
24.42,201.0
24.43,206.0
24.44,186.0
24.45,177.0
24.46,190.0
24.47,190.0
24.48,204.0
24.49,207.0
24.5,209.0
24.51,202.0
24.52,200.0
24.53,215.0
24.54,208.0
24.55,196.0
24.56,192.0
24.57,168.0
24.58,197.0
24.59,193.0
24.6,204.0
24.61,189.0
24.62,193.0
24.63,187.0
24.64,210.0
24.65,208.0
24.66,184.0
24.67,177.0
24.68,178.0
24.69,173.0
24.7,192.0
24.71,187.0
24.72,184.0
24.73,191.0
24.74,227.0
24.75,185.0
24.76,177.0
24.77,173.0
24.78,194.0
24.79,209.0
24.8,200.0
24.81,188.0
24.82,180.0
24.83,212.0
24.84,180.0
24.85,208.0
24.86,193.0
24.87,188.0
24.88,195.0
24.89,210.0
24.9,184.0
24.91,201.0
24.92,193.0
24.93,199.0
24.94,172.0
24.95,215.0
24.96,194.0
24.97,181.0
24.98,200.0
24.99,187.0
25.0,171.0
25.01,195.0
25.02,193.0
25.03,178.0
25.04,185.0
25.05,191.0
25.06,189.0
25.07,203.0
25.08,181.0
25.09,207.0
25.1,189.0
25.11,195.0
25.12,195.0
25.13,190.0
25.14,194.0
25.15,176.0
25.16,205.0
25.17,198.0
25.18,188.0
25.19,192.0
25.2,193.0
25.21,199.0
25.22,191.0
25.23,197.0
25.24,205.0
25.25,203.0
25.26,223.0
25.27,226.0
25.28,198.0
25.29,197.0
25.3,204.0
25.31,219.0
25.32,206.0
25.33,190.0
25.34,208.0
25.35,202.0
25.36,189.0
25.37,190.0
25.38,190.0
25.39,206.0
25.4,207.0
25.41,166.0
25.42,186.0
25.43,195.0
25.44,186.0
25.45,201.0
25.46,190.0
25.47,186.0
25.48,205.0
25.49,184.0
25.5,172.0
25.51,202.0
25.52,217.0
25.53,223.0
25.54,212.0
25.55,165.0
25.56,179.0
25.57,188.0
25.58,180.0
25.59,201.0
25.6,195.0
25.61,204.0
25.62,167.0
25.63,209.0
25.64,226.0
25.65,192.0
25.66,171.0
25.67,172.0
25.68,220.0
25.69,192.0
25.7,199.0
25.71,176.0
25.72,183.0
25.73,204.0
25.74,195.0
25.75,168.0
25.76,189.0
25.77,217.0
25.78,208.0
25.79,204.0
25.8,177.0
25.81,196.0
25.82,203.0
25.83,207.0
25.84,210.0
25.85,202.0
25.86,179.0
25.87,212.0
25.88,204.0
25.89,175.0
25.9,203.0
25.91,177.0
25.92,188.0
25.93,211.0
25.94,203.0
25.95,215.0
25.96,194.0
25.97,209.0
25.98,196.0
25.99,193.0
26.0,209.0
26.01,167.0
26.02,187.0
26.03,217.0
26.04,194.0
26.05,195.0
26.06,222.0
26.07,202.0
26.08,191.0
26.09,179.0
26.1,216.0
26.11,248.0
26.12,215.0
26.13,200.0
26.14,199.0
26.15,187.0
26.16,191.0
26.17,197.0
26.18,201.0
26.19,200.0
26.2,188.0
26.21,185.0
26.22,209.0
26.23,204.0
26.24,191.0
26.25,183.0
26.26,187.0
26.27,209.0
26.28,215.0
26.29,204.0
26.3,173.0
26.31,187.0
26.32,181.0
26.33,211.0
26.34,194.0
26.35,196.0
26.36,219.0
26.37,202.0
26.38,189.0
26.39,204.0
26.4,188.0
26.41,192.0
26.42,196.0
26.43,205.0
26.44,208.0
26.45,206.0
26.46,198.0
26.47,201.0
26.48,222.0
26.49,192.0
26.5,187.0
26.51,221.0
26.52,198.0
26.53,178.0
26.54,196.0
26.55,205.0
26.56,199.0
26.57,194.0
26.58,187.0
26.59,190.0
26.6,192.0
26.61,207.0
26.62,178.0
26.63,193.0
26.64,210.0
26.65,185.0
26.66,196.0
26.67,197.0
26.68,197.0
26.69,168.0
26.7,181.0
26.71,220.0
26.72,198.0
26.73,205.0
26.74,194.0
26.75,205.0
26.76,210.0
26.77,227.0
26.78,217.0
26.79,177.0
26.8,187.0
26.81,236.0
26.82,177.0
26.83,220.0
26.84,196.0
26.85,214.0
26.86,195.0
26.87,209.0
26.88,209.0
26.89,192.0
26.9,193.0
26.91,194.0
26.92,192.0
26.93,205.0
26.94,212.0
26.95,174.0
26.96,196.0
26.97,209.0
26.98,188.0
26.99,183.0
27.0,188.0
27.01,174.0
27.02,205.0
27.03,227.0
27.04,204.0
27.05,218.0
27.06,196.0
27.07,186.0
27.08,198.0
27.09,192.0
27.1,186.0
27.11,216.0
27.12,224.0
27.13,193.0
27.14,191.0
27.15,173.0
27.16,176.0
27.17,203.0
27.18,198.0
27.19,204.0
27.2,173.0
27.21,200.0
27.22,192.0
27.23,179.0
27.24,193.0
27.25,177.0
27.26,211.0
27.27,187.0
27.28,190.0
27.29,204.0
27.3,199.0
27.31,215.0
27.32,209.0
27.33,191.0
27.34,186.0
27.35,185.0
27.36,214.0
27.37,189.0
27.38,214.0
27.39,211.0
27.4,211.0
27.41,206.0
27.42,232.0
27.43,202.0
27.44,202.0
27.45,187.0
27.46,166.0
27.47,181.0
27.48,218.0
27.49,185.0
27.5,182.0
27.51,193.0
27.52,210.0
27.53,194.0
27.54,195.0
27.55,200.0
27.56,207.0
27.57,205.0
27.58,179.0
27.59,218.0
27.6,205.0
27.61,213.0
27.62,181.0
27.63,197.0
27.64,193.0
27.65,204.0
27.66,209.0
27.67,188.0
27.68,208.0
27.69,196.0
27.7,187.0
27.71,188.0
27.72,197.0
27.73,226.0
27.74,216.0
27.75,210.0
27.76,189.0
27.77,190.0
27.78,210.0
27.79,189.0
27.8,190.0
27.81,187.0
27.82,200.0
27.83,190.0
27.84,175.0
27.85,200.0
27.86,206.0
27.87,204.0
27.88,214.0
27.89,222.0
27.9,214.0
27.91,188.0
27.92,224.0
27.93,193.0
27.94,208.0
27.95,204.0
27.96,192.0
27.97,182.0
27.98,223.0
27.99,190.0
28.0,211.0
28.01,198.0
28.02,200.0
28.03,202.0
28.04,198.0
28.05,187.0
28.06,197.0
28.07,203.0
28.08,203.0
28.09,168.0
28.1,197.0
28.11,213.0
28.12,199.0
28.13,211.0
28.14,220.0
28.15,203.0
28.16,208.0
28.17,191.0
28.18,200.0
28.19,170.0
28.2,198.0
28.21,220.0
28.22,194.0
28.23,193.0
28.24,197.0
28.25,202.0
28.26,189.0
28.27,171.0
28.28,184.0
28.29,199.0
28.3,207.0
28.31,201.0
28.32,201.0
28.33,178.0
28.34,204.0
28.35,218.0
28.36,199.0
28.37,202.0
28.38,210.0
28.39,210.0
28.4,199.0
28.41,217.0
28.42,209.0
28.43,195.0
28.44,215.0
28.45,195.0
28.46,223.0
28.47,212.0
28.48,184.0
28.49,232.0
28.5,188.0
28.51,200.0
28.52,212.0
28.53,223.0
28.54,197.0
28.55,231.0
28.56,203.0
28.57,213.0
28.58,190.0
28.59,206.0
28.6,217.0
28.61,212.0
28.62,199.0
28.63,190.0
28.64,182.0
28.65,218.0
28.66,208.0
28.67,191.0
28.68,179.0
28.69,197.0
28.7,217.0
28.71,194.0
28.72,195.0
28.73,184.0
28.74,218.0
28.75,199.0
28.76,201.0
28.77,187.0
28.78,219.0
28.79,199.0
28.8,218.0
28.81,190.0
28.82,215.0
28.83,189.0
28.84,196.0
28.85,192.0
28.86,228.0
28.87,213.0
28.88,199.0
28.89,194.0
28.9,220.0
28.91,216.0
28.92,207.0
28.93,183.0
28.94,229.0
28.95,196.0
28.96,194.0
28.97,189.0
28.98,197.0
28.99,215.0
29.0,200.0
29.01,200.0
29.02,195.0
29.03,202.0
29.04,225.0
29.05,211.0
29.06,189.0
29.07,221.0
29.08,209.0
29.09,217.0
29.1,199.0
29.11,168.0
29.12,199.0
29.13,208.0
29.14,229.0
29.15,197.0
29.16,213.0
29.17,201.0
29.18,205.0
29.19,199.0
29.2,201.0
29.21,203.0
29.22,200.0
29.23,182.0
29.24,218.0
29.25,211.0
29.26,220.0
29.27,189.0
29.28,190.0
29.29,208.0
29.3,202.0
29.31,204.0
29.32,203.0
29.33,214.0
29.34,210.0
29.35,205.0
29.36,184.0
29.37,217.0
29.38,217.0
29.39,188.0
29.4,214.0
29.41,183.0
29.42,210.0
29.43,203.0
29.44,199.0
29.45,206.0
29.46,205.0
29.47,220.0
29.48,215.0
29.49,211.0
29.5,196.0
29.51,215.0
29.52,192.0
29.53,222.0
29.54,192.0
29.55,193.0
29.56,200.0
29.57,211.0
29.58,186.0
29.59,197.0
29.6,184.0
29.61,210.0
29.62,212.0
29.63,221.0
29.64,224.0
29.65,209.0
29.66,187.0
29.67,210.0
29.68,177.0
29.69,204.0
29.7,217.0
29.71,202.0
29.72,202.0
29.73,198.0
29.74,195.0
29.75,202.0
29.76,208.0
29.77,196.0
29.78,183.0
29.79,212.0
29.8,195.0
29.81,203.0
29.82,175.0
29.83,195.0
29.84,196.0
29.85,234.0
29.86,179.0
29.87,221.0
29.88,204.0
29.89,213.0
29.9,220.0
29.91,217.0
29.92,208.0
29.93,197.0
29.94,200.0
29.95,202.0
29.96,199.0
29.97,207.0
29.98,213.0
29.99,206.0
30.0,228.0
30.01,195.0
30.02,213.0
30.03,215.0
30.04,201.0
30.05,219.0
30.06,228.0
30.07,221.0
30.08,185.0
30.09,217.0
30.1,216.0
30.11,210.0
30.12,202.0
30.13,236.0
30.14,217.0
30.15,228.0
30.16,229.0
30.17,233.0
30.18,195.0
30.19,215.0
30.2,193.0
30.21,195.0
30.22,197.0
30.23,224.0
30.24,206.0
30.25,213.0
30.26,217.0
30.27,216.0
30.28,213.0
30.29,208.0
30.3,192.0
30.31,204.0
30.32,210.0
30.33,188.0
30.34,206.0
30.35,206.0
30.36,216.0
30.37,196.0
30.38,199.0
30.39,215.0
30.4,190.0
30.41,230.0
30.42,187.0
30.43,199.0
30.44,209.0
30.45,223.0
30.46,196.0
30.47,202.0
30.48,202.0
30.49,221.0
30.5,183.0
30.51,197.0
30.52,184.0
30.53,218.0
30.54,194.0
30.55,188.0
30.56,226.0
30.57,218.0
30.58,214.0
30.59,222.0
30.6,225.0
30.61,191.0
30.62,216.0
30.63,232.0
30.64,173.0
30.65,195.0
30.66,182.0
30.67,172.0
30.68,223.0
30.69,209.0
30.7,215.0
30.71,186.0
30.72,225.0
30.73,205.0
30.74,204.0
30.75,209.0
30.76,191.0
30.77,191.0
30.78,196.0
30.79,223.0
30.8,185.0
30.81,220.0
30.82,208.0
30.83,191.0
30.84,202.0
30.85,215.0
30.86,189.0
30.87,208.0
30.88,196.0
30.89,198.0
30.9,224.0
30.91,213.0
30.92,172.0
30.93,224.0
30.94,195.0
30.95,210.0
30.96,230.0
30.97,182.0
30.98,221.0
30.99,220.0
31.0,179.0
31.01,190.0
31.02,184.0
31.03,210.0
31.04,222.0
31.05,182.0
31.06,195.0
31.07,184.0
31.08,196.0
31.09,202.0
31.1,219.0
31.11,213.0
31.12,212.0
31.13,202.0
31.14,202.0
31.15,233.0
31.16,197.0
31.17,205.0
31.18,183.0
31.19,209.0
31.2,217.0
31.21,210.0
31.22,220.0
31.23,212.0
31.24,220.0
31.25,183.0
31.26,201.0
31.27,185.0
31.28,205.0
31.29,233.0
31.3,234.0
31.31,181.0
31.32,187.0
31.33,204.0
31.34,223.0
31.35,207.0
31.36,219.0
31.37,210.0
31.38,218.0
31.39,210.0
31.4,192.0
31.41,177.0
31.42,227.0
31.43,200.0
31.44,208.0
31.45,193.0
31.46,205.0
31.47,213.0
31.48,192.0
31.49,211.0
31.5,208.0
31.51,188.0
31.52,213.0
31.53,198.0
31.54,214.0
31.55,201.0
31.56,208.0
31.57,195.0
31.58,205.0
31.59,208.0
31.6,188.0
31.61,191.0
31.62,202.0
31.63,224.0
31.64,201.0
31.65,218.0
31.66,240.0
31.67,197.0
31.68,207.0
31.69,198.0
31.7,210.0
31.71,206.0
31.72,213.0
31.73,222.0
31.74,202.0
31.75,187.0
31.76,185.0
31.77,217.0
31.78,206.0
31.79,225.0
31.8,229.0
31.81,201.0
31.82,216.0
31.83,197.0
31.84,222.0
31.85,218.0
31.86,202.0
31.87,228.0
31.88,192.0
31.89,227.0
31.9,224.0
31.91,224.0
31.92,204.0
31.93,203.0
31.94,206.0
31.95,202.0
31.96,215.0
31.97,236.0
31.98,216.0
31.99,212.0
32.0,199.0
32.01,203.0
32.02,186.0
32.03,218.0
32.04,223.0
32.05,201.0
32.06,208.0
32.07,241.0
32.08,217.0
32.09,231.0
32.1,220.0
32.11,226.0
32.12,217.0
32.13,223.0
32.14,187.0
32.15,190.0
32.16,212.0
32.17,252.0
32.18,222.0
32.19,201.0
32.2,204.0
32.21,192.0
32.22,228.0
32.23,205.0
32.24,210.0
32.25,211.0
32.26,204.0
32.27,202.0
32.28,214.0
32.29,217.0
32.3,205.0
32.31,212.0
32.32,216.0
32.33,236.0
32.34,242.0
32.35,195.0
32.36,260.0
32.37,200.0
32.38,201.0
32.39,218.0
32.4,205.0
32.41,202.0
32.42,186.0
32.43,216.0
32.44,199.0
32.45,207.0
32.46,218.0
32.47,198.0
32.48,206.0
32.49,188.0
32.5,196.0
32.51,212.0
32.52,198.0
32.53,196.0
32.54,205.0
32.55,221.0
32.56,218.0
32.57,204.0
32.58,232.0
32.59,222.0
32.6,226.0
32.61,204.0
32.62,220.0
32.63,169.0
32.64,223.0
32.65,241.0
32.66,238.0
32.67,217.0
32.68,222.0
32.69,219.0
32.7,187.0
32.71,208.0
32.72,230.0
32.73,210.0
32.74,208.0
32.75,204.0
32.76,240.0
32.77,227.0
32.78,193.0
32.79,230.0
32.8,203.0
32.81,196.0
32.82,186.0
32.83,196.0
32.84,215.0
32.85,237.0
32.86,219.0
32.87,211.0
32.88,202.0
32.89,220.0
32.9,230.0
32.91,228.0
32.92,191.0
32.93,214.0
32.94,196.0
32.95,246.0
32.96,224.0
32.97,225.0
32.98,230.0
32.99,224.0
33.0,234.0
33.01,218.0
33.02,223.0
33.03,216.0
33.04,230.0
33.05,251.0
33.06,232.0
33.07,231.0
33.08,246.0
33.09,251.0
33.1,264.0
33.11,238.0
33.12,265.0
33.13,298.0
33.14,292.0
33.15,358.0
33.16,330.0
33.17,371.0
33.18,344.0
33.19,390.0
33.2,350.0
33.21,401.0
33.22,358.0
33.23,316.0
33.24,320.0
33.25,341.0
33.26,305.0
33.27,317.0
33.28,312.0
33.29,306.0
33.3,283.0
33.31,278.0
33.32,254.0
33.33,258.0
33.34,272.0
33.35,255.0
33.36,253.0
33.37,246.0
33.38,225.0
33.39,243.0
33.4,211.0
33.41,216.0
33.42,223.0
33.43,229.0
33.44,202.0
33.45,229.0
33.46,202.0
33.47,233.0
33.48,224.0
33.49,225.0
33.5,225.0
33.51,222.0
33.52,234.0
33.53,230.0
33.54,209.0
33.55,186.0
33.56,208.0
33.57,235.0
33.58,217.0
33.59,195.0
33.6,234.0
33.61,202.0
33.62,221.0
33.63,232.0
33.64,216.0
33.65,183.0
33.66,218.0
33.67,201.0
33.68,201.0
33.69,199.0
33.7,213.0
33.71,222.0
33.72,225.0
33.73,224.0
33.74,185.0
33.75,222.0
33.76,218.0
33.77,196.0
33.78,187.0
33.79,220.0
33.8,224.0
33.81,237.0
33.82,195.0
33.83,222.0
33.84,206.0
33.85,208.0
33.86,200.0
33.87,199.0
33.88,225.0
33.89,204.0
33.9,191.0
33.91,207.0
33.92,218.0
33.93,177.0
33.94,207.0
33.95,246.0
33.96,194.0
33.97,215.0
33.98,204.0
33.99,184.0
34.0,225.0
34.01,234.0
34.02,205.0
34.03,214.0
34.04,196.0
34.05,235.0
34.06,208.0
34.07,240.0
34.08,237.0
34.09,209.0
34.1,202.0
34.11,206.0
34.12,209.0
34.13,236.0
34.14,244.0
34.15,235.0
34.16,201.0
34.17,230.0
34.18,207.0
34.19,189.0
34.2,192.0
34.21,211.0
34.22,220.0
34.23,180.0
34.24,211.0
34.25,229.0
34.26,196.0
34.27,219.0
34.28,210.0
34.29,218.0
34.3,189.0
34.31,206.0
34.32,204.0
34.33,231.0
34.34,206.0
34.35,217.0
34.36,211.0
34.37,222.0
34.38,193.0
34.39,226.0
34.4,213.0
34.41,226.0
34.42,231.0
34.43,237.0
34.44,244.0
34.45,256.0
34.46,207.0
34.47,236.0
34.48,204.0
34.49,227.0
34.5,232.0
34.51,231.0
34.52,222.0
34.53,171.0
34.54,240.0
34.55,209.0
34.56,228.0
34.57,184.0
34.58,188.0
34.59,211.0
34.6,210.0
34.61,221.0
34.62,225.0
34.63,239.0
34.64,216.0
34.65,216.0
34.66,238.0
34.67,218.0
34.68,215.0
34.69,196.0
34.7,208.0
34.71,225.0
34.72,205.0
34.73,239.0
34.74,246.0
34.75,212.0
34.76,216.0
34.77,217.0
34.78,200.0
34.79,215.0
34.8,228.0
34.81,189.0
34.82,200.0
34.83,227.0
34.84,186.0
34.85,207.0
34.86,226.0
34.87,230.0
34.88,234.0
34.89,198.0
34.9,216.0
34.91,236.0
34.92,206.0
34.93,223.0
34.94,210.0
34.95,212.0
34.96,214.0
34.97,196.0
34.98,192.0
34.99,204.0
35.0,208.0
35.01,217.0
35.02,205.0
35.03,214.0
35.04,207.0
35.05,227.0
35.06,223.0
35.07,213.0
35.08,227.0
35.09,222.0
35.1,218.0
35.11,227.0
35.12,209.0
35.13,228.0
35.14,218.0
35.15,214.0
35.16,244.0
35.17,245.0
35.18,197.0
35.19,205.0
35.2,255.0
35.21,218.0
35.22,233.0
35.23,191.0
35.24,244.0
35.25,219.0
35.26,247.0
35.27,209.0
35.28,220.0
35.29,237.0
35.3,238.0
35.31,223.0
35.32,229.0
35.33,219.0
35.34,234.0
35.35,227.0
35.36,236.0
35.37,219.0
35.38,210.0
35.39,222.0
35.4,258.0
35.41,238.0
35.42,245.0
35.43,243.0
35.44,256.0
35.45,304.0
35.46,273.0
35.47,286.0
35.48,272.0
35.49,283.0
35.5,281.0
35.51,247.0
35.52,269.0
35.53,251.0
35.54,255.0
35.55,265.0
35.56,279.0
35.57,253.0
35.58,250.0
35.59,285.0
35.6,278.0
35.61,281.0
35.62,287.0
35.63,319.0
35.64,345.0
35.65,342.0
35.66,339.0
35.67,348.0
35.68,344.0
35.69,323.0
35.7,307.0
35.71,297.0
35.72,297.0
35.73,297.0
35.74,299.0
35.75,271.0
35.76,307.0
35.77,290.0
35.78,314.0
35.79,267.0
35.8,256.0
35.81,233.0
35.82,307.0
35.83,250.0
35.84,245.0
35.85,233.0
35.86,214.0
35.87,241.0
35.88,228.0
35.89,236.0
35.9,239.0
35.91,224.0
35.92,259.0
35.93,229.0
35.94,240.0
35.95,243.0
35.96,222.0
35.97,240.0
35.98,234.0
35.99,247.0
36.0,222.0
36.01,242.0
36.02,207.0
36.03,229.0
36.04,232.0
36.05,207.0
36.06,209.0
36.07,215.0
36.08,207.0
36.09,191.0
36.1,213.0
36.11,225.0
36.12,221.0
36.13,228.0
36.14,228.0
36.15,217.0
36.16,229.0
36.17,233.0
36.18,205.0
36.19,208.0
36.2,223.0
36.21,221.0
36.22,224.0
36.23,244.0
36.24,214.0
36.25,210.0
36.26,214.0
36.27,208.0
36.28,242.0
36.29,196.0
36.3,221.0
36.31,225.0
36.32,203.0
36.33,198.0
36.34,206.0
36.35,212.0
36.36,211.0
36.37,226.0
36.38,203.0
36.39,224.0
36.4,220.0
36.41,218.0
36.42,263.0
36.43,222.0
36.44,201.0
36.45,206.0
36.46,217.0
36.47,207.0
36.48,225.0
36.49,208.0
36.5,230.0
36.51,214.0
36.52,216.0
36.53,224.0
36.54,230.0
36.55,220.0
36.56,229.0
36.57,209.0
36.58,210.0
36.59,267.0
36.6,225.0
36.61,239.0
36.62,204.0
36.63,207.0
36.64,230.0
36.65,207.0
36.66,231.0
36.67,193.0
36.68,197.0
36.69,213.0
36.7,223.0
36.71,200.0
36.72,198.0
36.73,217.0
36.74,200.0
36.75,205.0
36.76,227.0
36.77,188.0
36.78,228.0
36.79,196.0
36.8,204.0
36.81,222.0
36.82,217.0
36.83,233.0
36.84,194.0
36.85,221.0
36.86,216.0
36.87,214.0
36.88,233.0
36.89,179.0
36.9,216.0
36.91,224.0
36.92,225.0
36.93,220.0
36.94,224.0
36.95,228.0
36.96,211.0
36.97,215.0
36.98,237.0
36.99,224.0
37.0,196.0
37.01,210.0
37.02,217.0
37.03,207.0
37.04,221.0
37.05,203.0
37.06,211.0
37.07,208.0
37.08,204.0
37.09,222.0
37.1,207.0
37.11,241.0
37.12,209.0
37.13,218.0
37.14,201.0
37.15,226.0
37.16,238.0
37.17,216.0
37.18,211.0
37.19,200.0
37.2,222.0
37.21,203.0
37.22,208.0
37.23,202.0
37.24,201.0
37.25,233.0
37.26,222.0
37.27,199.0
37.28,228.0
37.29,214.0
37.3,232.0
37.31,214.0
37.32,214.0
37.33,209.0
37.34,228.0
37.35,236.0
37.36,242.0
37.37,206.0
37.38,214.0
37.39,206.0
37.4,230.0
37.41,202.0
37.42,220.0
37.43,233.0
37.44,228.0
37.45,217.0
37.46,197.0
37.47,200.0
37.48,207.0
37.49,203.0
37.5,218.0
37.51,223.0
37.52,241.0
37.53,219.0
37.54,184.0
37.55,221.0
37.56,224.0
37.57,231.0
37.58,202.0
37.59,211.0
37.6,212.0
37.61,224.0
37.62,229.0
37.63,236.0
37.64,194.0
37.65,226.0
37.66,209.0
37.67,226.0
37.68,215.0
37.69,231.0
37.7,226.0
37.71,233.0
37.72,228.0
37.73,218.0
37.74,216.0
37.75,242.0
37.76,199.0
37.77,217.0
37.78,215.0
37.79,214.0
37.8,203.0
37.81,231.0
37.82,219.0
37.83,183.0
37.84,221.0
37.85,225.0
37.86,215.0
37.87,196.0
37.88,213.0
37.89,199.0
37.9,238.0
37.91,204.0
37.92,189.0
37.93,220.0
37.94,232.0
37.95,214.0
37.96,208.0
37.97,213.0
37.98,207.0
37.99,226.0
38.0,223.0
38.01,207.0
38.02,204.0
38.03,230.0
38.04,216.0
38.05,204.0
38.06,191.0
38.07,200.0
38.08,212.0
38.09,232.0
38.1,221.0
38.11,225.0
38.12,212.0
38.13,219.0
38.14,196.0
38.15,214.0
38.16,220.0
38.17,216.0
38.18,229.0
38.19,238.0
38.2,212.0
38.21,224.0
38.22,203.0
38.23,214.0
38.24,206.0
38.25,215.0
38.26,212.0
38.27,216.0
38.28,229.0
38.29,221.0
38.3,225.0
38.31,218.0
38.32,228.0
38.33,217.0
38.34,204.0
38.35,227.0
38.36,210.0
38.37,214.0
38.38,199.0
38.39,207.0
38.4,213.0
38.41,218.0
38.42,204.0
38.43,215.0
38.44,217.0
38.45,221.0
38.46,180.0
38.47,212.0
38.48,256.0
38.49,220.0
38.5,229.0
38.51,224.0
38.52,203.0
38.53,213.0
38.54,196.0
38.55,249.0
38.56,224.0
38.57,212.0
38.58,219.0
38.59,213.0
38.6,230.0
38.61,201.0
38.62,196.0
38.63,203.0
38.64,194.0
38.65,228.0
38.66,212.0
38.67,233.0
38.68,197.0
38.69,230.0
38.7,209.0
38.71,218.0
38.72,221.0
38.73,202.0
38.74,210.0
38.75,225.0
38.76,219.0
38.77,225.0
38.78,238.0
38.79,227.0
38.8,208.0
38.81,229.0
38.82,193.0
38.83,228.0
38.84,224.0
38.85,216.0
38.86,214.0
38.87,222.0
38.88,223.0
38.89,227.0
38.9,223.0
38.91,210.0
38.92,209.0
38.93,218.0
38.94,215.0
38.95,218.0
38.96,215.0
38.97,216.0
38.98,205.0
38.99,231.0
39.0,213.0
39.01,234.0
39.02,204.0
39.03,201.0
39.04,236.0
39.05,226.0
39.06,208.0
39.07,230.0
39.08,232.0
39.09,255.0
39.1,182.0
39.11,190.0
39.12,238.0
39.13,239.0
39.14,197.0
39.15,227.0
39.16,230.0
39.17,228.0
39.18,222.0
39.19,206.0
39.2,218.0
39.21,222.0
39.22,235.0
39.23,232.0
39.24,185.0
39.25,191.0
39.26,231.0
39.27,212.0
39.28,239.0
39.29,223.0
39.3,247.0
39.31,223.0
39.32,201.0
39.33,203.0
39.34,247.0
39.35,207.0
39.36,213.0
39.37,208.0
39.38,205.0
39.39,224.0
39.4,199.0
39.41,236.0
39.42,243.0
39.43,216.0
39.44,232.0
39.45,200.0
39.46,233.0
39.47,240.0
39.48,212.0
39.49,223.0
39.5,218.0
39.51,212.0
39.52,243.0
39.53,225.0
39.54,204.0
39.55,243.0
39.56,231.0
39.57,229.0
39.58,235.0
39.59,228.0
39.6,202.0
39.61,263.0
39.62,223.0
39.63,191.0
39.64,231.0
39.65,244.0
39.66,231.0
39.67,252.0
39.68,260.0
39.69,240.0
39.7,240.0
39.71,221.0
39.72,236.0
39.73,219.0
39.74,198.0
39.75,221.0
39.76,204.0
39.77,212.0
39.78,188.0
39.79,212.0
39.8,219.0
39.81,223.0
39.82,219.0
39.83,242.0
39.84,211.0
39.85,223.0
39.86,221.0
39.87,248.0
39.88,233.0
39.89,197.0
39.9,226.0
39.91,193.0
39.92,253.0
39.93,215.0
39.94,216.0
39.95,201.0
39.96,207.0
39.97,209.0
39.98,218.0
39.99,228.0
40.0,198.0
40.01,245.0
40.02,218.0
40.03,243.0
40.04,226.0
40.05,209.0
40.06,198.0
40.07,231.0
40.08,206.0
40.09,211.0
40.1,216.0
40.11,197.0
40.12,215.0
40.13,213.0
40.14,219.0
40.15,223.0
40.16,226.0
40.17,212.0
40.18,204.0
40.19,212.0
40.2,210.0
40.21,234.0
40.22,217.0
40.23,235.0
40.24,222.0
40.25,235.0
40.26,215.0
40.27,202.0
40.28,219.0
40.29,220.0
40.3,210.0
40.31,217.0
40.32,216.0
40.33,217.0
40.34,209.0
40.35,227.0
40.36,235.0
40.37,218.0
40.38,236.0
40.39,237.0
40.4,202.0
40.41,229.0
40.42,240.0
40.43,216.0
40.44,219.0
40.45,228.0
40.46,213.0
40.47,235.0
40.48,243.0
40.49,223.0
40.5,226.0
40.51,232.0
40.52,222.0
40.53,211.0
40.54,207.0
40.55,237.0
40.56,228.0
40.57,206.0
40.58,211.0
40.59,248.0
40.6,211.0
40.61,212.0
40.62,220.0
40.63,227.0
40.64,224.0
40.65,233.0
40.66,228.0
40.67,225.0
40.68,240.0
40.69,203.0
40.7,203.0
40.71,222.0
40.72,251.0
40.73,205.0
40.74,225.0
40.75,225.0
40.76,205.0
40.77,233.0
40.78,239.0
40.79,256.0
40.8,238.0
40.81,238.0
40.82,243.0
40.83,246.0
40.84,217.0
40.85,247.0
40.86,223.0
40.87,252.0
40.88,260.0
40.89,274.0
40.9,240.0
40.91,241.0
40.92,239.0
40.93,260.0
40.94,264.0
40.95,227.0
40.96,231.0
40.97,238.0
40.98,275.0
40.99,251.0
41.0,269.0
41.01,228.0
41.02,236.0
41.03,229.0
41.04,222.0
41.05,220.0
41.06,225.0
41.07,239.0
41.08,238.0
41.09,233.0
41.1,234.0
41.11,245.0
41.12,224.0
41.13,216.0
41.14,237.0
41.15,224.0
41.16,227.0
41.17,222.0
41.18,215.0
41.19,220.0
41.2,215.0
41.21,223.0
41.22,210.0
41.23,246.0
41.24,239.0
41.25,221.0
41.26,239.0
41.27,232.0
41.28,237.0
41.29,241.0
41.3,229.0
41.31,222.0
41.32,226.0
41.33,203.0
41.34,209.0
41.35,215.0
41.36,191.0
41.37,246.0
41.38,212.0
41.39,222.0
41.4,220.0
41.41,236.0
41.42,224.0
41.43,238.0
41.44,210.0
41.45,219.0
41.46,209.0
41.47,218.0
41.48,240.0
41.49,220.0
41.5,247.0
41.51,202.0
41.52,250.0
41.53,227.0
41.54,218.0
41.55,219.0
41.56,215.0
41.57,206.0
41.58,223.0
41.59,267.0
41.6,229.0
41.61,213.0
41.62,229.0
41.63,222.0
41.64,242.0
41.65,225.0
41.66,201.0
41.67,215.0
41.68,241.0
41.69,248.0
41.7,227.0
41.71,235.0
41.72,234.0
41.73,209.0
41.74,225.0
41.75,228.0
41.76,225.0
41.77,243.0
41.78,205.0
41.79,212.0
41.8,210.0
41.81,216.0
41.82,217.0
41.83,216.0
41.84,221.0
41.85,196.0
41.86,230.0
41.87,225.0
41.88,213.0
41.89,210.0
41.9,199.0
41.91,226.0
41.92,214.0
41.93,249.0
41.94,218.0
41.95,221.0
41.96,237.0
41.97,194.0
41.98,206.0
41.99,223.0
42.0,246.0
42.01,239.0
42.02,209.0
42.03,210.0
42.04,234.0
42.05,212.0
42.06,232.0
42.07,194.0
42.08,233.0
42.09,230.0
42.1,235.0
42.11,215.0
42.12,203.0
42.13,208.0
42.14,209.0
42.15,213.0
42.16,233.0
42.17,199.0
42.18,227.0
42.19,225.0
42.2,235.0
42.21,237.0
42.22,216.0
42.23,230.0
42.24,212.0
42.25,211.0
42.26,213.0
42.27,240.0
42.28,238.0
42.29,227.0
42.3,217.0
42.31,232.0
42.32,209.0
42.33,249.0
42.34,240.0
42.35,197.0
42.36,229.0
42.37,240.0
42.38,213.0
42.39,219.0
42.4,250.0
42.41,200.0
42.42,219.0
42.43,222.0
42.44,218.0
42.45,226.0
42.46,219.0
42.47,232.0
42.48,196.0
42.49,234.0
42.5,246.0
42.51,194.0
42.52,212.0
42.53,245.0
42.54,233.0
42.55,192.0
42.56,224.0
42.57,219.0
42.58,204.0
42.59,199.0
42.6,220.0
42.61,209.0
42.62,223.0
42.63,237.0
42.64,230.0
42.65,238.0
42.66,245.0
42.67,231.0
42.68,213.0
42.69,237.0
42.7,231.0
42.71,216.0
42.72,237.0
42.73,211.0
42.74,229.0
42.75,219.0
42.76,207.0
42.77,200.0
42.78,215.0
42.79,237.0
42.8,235.0
42.81,212.0
42.82,221.0
42.83,215.0
42.84,219.0
42.85,212.0
42.86,221.0
42.87,227.0
42.88,198.0
42.89,233.0
42.9,234.0
42.91,220.0
42.92,241.0
42.93,222.0
42.94,233.0
42.95,217.0
42.96,221.0
42.97,219.0
42.98,258.0
42.99,210.0
43.0,228.0
43.01,196.0
43.02,255.0
43.03,224.0
43.04,240.0
43.05,209.0
43.06,215.0
43.07,218.0
43.08,252.0
43.09,236.0
43.1,240.0
43.11,232.0
43.12,221.0
43.13,241.0
43.14,261.0
43.15,211.0
43.16,196.0
43.17,216.0
43.18,226.0
43.19,213.0
43.2,208.0
43.21,225.0
43.22,253.0
43.23,206.0
43.24,226.0
43.25,261.0
43.26,205.0
43.27,223.0
43.28,227.0
43.29,234.0
43.3,232.0
43.31,248.0
43.32,232.0
43.33,227.0
43.34,222.0
43.35,233.0
43.36,218.0
43.37,228.0
43.38,228.0
43.39,199.0
43.4,219.0
43.41,201.0
43.42,194.0
43.43,250.0
43.44,213.0
43.45,222.0
43.46,233.0
43.47,244.0
43.48,232.0
43.49,208.0
43.5,199.0
43.51,195.0
43.52,263.0
43.53,247.0
43.54,231.0
43.55,228.0
43.56,223.0
43.57,225.0
43.58,219.0
43.59,227.0
43.6,208.0
43.61,261.0
43.62,221.0
43.63,204.0
43.64,218.0
43.65,212.0
43.66,245.0
43.67,250.0
43.68,224.0
43.69,191.0
43.7,231.0
43.71,220.0
43.72,197.0
43.73,226.0
43.74,226.0
43.75,195.0
43.76,213.0
43.77,230.0
43.78,230.0
43.79,240.0
43.8,215.0
43.81,195.0
43.82,218.0
43.83,218.0
43.84,228.0
43.85,222.0
43.86,214.0
43.87,228.0
43.88,207.0
43.89,234.0
43.9,234.0
43.91,223.0
43.92,248.0
43.93,231.0
43.94,198.0
43.95,231.0
43.96,240.0
43.97,212.0
43.98,219.0
43.99,234.0
44.0,222.0
44.01,256.0
44.02,238.0
44.03,234.0
44.04,230.0
44.05,207.0
44.06,228.0
44.07,200.0
44.08,198.0
44.09,220.0
44.1,229.0
44.11,227.0
44.12,212.0
44.13,243.0
44.14,240.0
44.15,245.0
44.16,217.0
44.17,200.0
44.18,211.0
44.19,235.0
44.2,207.0
44.21,224.0
44.22,220.0
44.23,247.0
44.24,240.0
44.25,210.0
44.26,243.0
44.27,230.0
44.28,197.0
44.29,189.0
44.3,206.0
44.31,224.0
44.32,208.0
44.33,244.0
44.34,233.0
44.35,228.0
44.36,235.0
44.37,206.0
44.38,204.0
44.39,264.0
44.4,226.0
44.41,230.0
44.42,210.0
44.43,248.0
44.44,207.0
44.45,197.0
44.46,207.0
44.47,226.0
44.48,197.0
44.49,219.0
44.5,210.0
44.51,237.0
44.52,227.0
44.53,229.0
44.54,214.0
44.55,214.0
44.56,221.0
44.57,208.0
44.58,242.0
44.59,194.0
44.6,220.0
44.61,221.0
44.62,216.0
44.63,218.0
44.64,233.0
44.65,206.0
44.66,222.0
44.67,214.0
44.68,256.0
44.69,254.0
44.7,209.0
44.71,221.0
44.72,228.0
44.73,231.0
44.74,235.0
44.75,231.0
44.76,214.0
44.77,233.0
44.78,233.0
44.79,243.0
44.8,216.0
44.81,216.0
44.82,217.0
44.83,190.0
44.84,233.0
44.85,210.0
44.86,232.0
44.87,234.0
44.88,216.0
44.89,211.0
44.9,213.0
44.91,222.0
44.92,212.0
44.93,219.0
44.94,225.0
44.95,197.0
44.96,223.0
44.97,226.0
44.98,237.0
44.99,244.0
45.0,218.0
45.01,233.0
45.02,237.0
45.03,252.0
45.04,220.0
45.05,249.0
45.06,234.0
45.07,190.0
45.08,212.0
45.09,220.0
45.1,223.0
45.11,242.0
45.12,221.0
45.13,226.0
45.14,241.0
45.15,221.0
45.16,207.0
45.17,190.0
45.18,232.0
45.19,245.0
45.2,240.0
45.21,247.0
45.22,209.0
45.23,215.0
45.24,224.0
45.25,214.0
45.26,228.0
45.27,197.0
45.28,243.0
45.29,202.0
45.3,230.0
45.31,233.0
45.32,209.0
45.33,247.0
45.34,235.0
45.35,236.0
45.36,215.0
45.37,220.0
45.38,221.0
45.39,232.0
45.4,226.0
45.41,187.0
45.42,202.0
45.43,207.0
45.44,213.0
45.45,245.0
45.46,226.0
45.47,223.0
45.48,218.0
45.49,197.0
45.5,248.0
45.51,210.0
45.52,209.0
45.53,206.0
45.54,216.0
45.55,214.0
45.56,234.0
45.57,244.0
45.58,205.0
45.59,218.0
45.6,208.0
45.61,204.0
45.62,237.0
45.63,240.0
45.64,222.0
45.65,230.0
45.66,226.0
45.67,238.0
45.68,234.0
45.69,207.0
45.7,232.0
45.71,207.0
45.72,228.0
45.73,218.0
45.74,224.0
45.75,225.0
45.76,226.0
45.77,222.0
45.78,232.0
45.79,230.0
45.8,221.0
45.81,202.0
45.82,229.0
45.83,213.0
45.84,188.0
45.85,210.0
45.86,214.0
45.87,217.0
45.88,227.0
45.89,227.0
45.9,235.0
45.91,240.0
45.92,213.0
45.93,220.0
45.94,232.0
45.95,235.0
45.96,200.0
45.97,234.0
45.98,224.0
45.99,235.0
46.0,220.0
46.01,215.0
46.02,214.0
46.03,233.0
46.04,266.0
46.05,206.0
46.06,251.0
46.07,236.0
46.08,199.0
46.09,210.0
46.1,220.0
46.11,222.0
46.12,239.0
46.13,197.0
46.14,251.0
46.15,207.0
46.16,246.0
46.17,205.0
46.18,196.0
46.19,226.0
46.2,232.0
46.21,220.0
46.22,227.0
46.23,269.0
46.24,233.0
46.25,216.0
46.26,225.0
46.27,232.0
46.28,229.0
46.29,217.0
46.3,221.0
46.31,196.0
46.32,219.0
46.33,235.0
46.34,245.0
46.35,213.0
46.36,228.0
46.37,226.0
46.38,240.0
46.39,249.0
46.4,189.0
46.41,230.0
46.42,234.0
46.43,201.0
46.44,241.0
46.45,245.0
46.46,232.0
46.47,209.0
46.48,198.0
46.49,246.0
46.5,234.0
46.51,214.0
46.52,212.0
46.53,215.0
46.54,209.0
46.55,232.0
46.56,220.0
46.57,214.0
46.58,220.0
46.59,215.0
46.6,227.0
46.61,252.0
46.62,217.0
46.63,244.0
46.64,254.0
46.65,225.0
46.66,219.0
46.67,261.0
46.68,215.0
46.69,209.0
46.7,227.0
46.71,241.0
46.72,199.0
46.73,228.0
46.74,201.0
46.75,236.0
46.76,231.0
46.77,234.0
46.78,236.0
46.79,219.0
46.8,202.0
46.81,219.0
46.82,232.0
46.83,236.0
46.84,205.0
46.85,218.0
46.86,226.0
46.87,216.0
46.88,221.0
46.89,223.0
46.9,226.0
46.91,232.0
46.92,253.0
46.93,218.0
46.94,215.0
46.95,194.0
46.96,222.0
46.97,232.0
46.98,211.0
46.99,222.0
47.0,208.0
47.01,217.0
47.02,197.0
47.03,229.0
47.04,219.0
47.05,215.0
47.06,208.0
47.07,236.0
47.08,251.0
47.09,203.0
47.1,208.0
47.11,240.0
47.12,241.0
47.13,249.0
47.14,253.0
47.15,224.0
47.16,241.0
47.17,237.0
47.18,201.0
47.19,222.0
47.2,212.0
47.21,234.0
47.22,211.0
47.23,247.0
47.24,210.0
47.25,213.0
47.26,213.0
47.27,229.0
47.28,215.0
47.29,231.0
47.3,240.0
47.31,247.0
47.32,231.0
47.33,239.0
47.34,230.0
47.35,216.0
47.36,228.0
47.37,204.0
47.38,242.0
47.39,206.0
47.4,212.0
47.41,203.0
47.42,212.0
47.43,236.0
47.44,237.0
47.45,252.0
47.46,233.0
47.47,232.0
47.48,216.0
47.49,206.0
47.5,212.0
47.51,220.0
47.52,223.0
47.53,218.0
47.54,197.0
47.55,239.0
47.56,214.0
47.57,207.0
47.58,205.0
47.59,243.0
47.6,224.0
47.61,242.0
47.62,227.0
47.63,231.0
47.64,239.0
47.65,218.0
47.66,239.0
47.67,225.0
47.68,234.0
47.69,204.0
47.7,200.0
47.71,216.0
47.72,236.0
47.73,258.0
47.74,209.0
47.75,224.0
47.76,226.0
47.77,230.0
47.78,245.0
47.79,221.0
47.8,212.0
47.81,258.0
47.82,218.0
47.83,215.0
47.84,221.0
47.85,207.0
47.86,233.0
47.87,186.0
47.88,202.0
47.89,232.0
47.9,253.0
47.91,229.0
47.92,232.0
47.93,203.0
47.94,220.0
47.95,255.0
47.96,248.0
47.97,223.0
47.98,219.0
47.99,220.0
48.0,230.0
48.01,214.0
48.02,234.0
48.03,206.0
48.04,253.0
48.05,231.0
48.06,207.0
48.07,207.0
48.08,217.0
48.09,236.0
48.1,239.0
48.11,232.0
48.12,210.0
48.13,259.0
48.14,228.0
48.15,236.0
48.16,234.0
48.17,228.0
48.18,227.0
48.19,217.0
48.2,235.0
48.21,232.0
48.22,216.0
48.23,214.0
48.24,254.0
48.25,221.0
48.26,229.0
48.27,247.0
48.28,201.0
48.29,222.0
48.3,221.0
48.31,220.0
48.32,247.0
48.33,217.0
48.34,204.0
48.35,227.0
48.36,239.0
48.37,226.0
48.38,204.0
48.39,210.0
48.4,218.0
48.41,194.0
48.42,237.0
48.43,216.0
48.44,230.0
48.45,209.0
48.46,233.0
48.47,218.0
48.48,254.0
48.49,206.0
48.5,215.0
48.51,237.0
48.52,213.0
48.53,242.0
48.54,221.0
48.55,240.0
48.56,229.0
48.57,214.0
48.58,222.0
48.59,241.0
48.6,232.0
48.61,243.0
48.62,238.0
48.63,236.0
48.64,240.0
48.65,222.0
48.66,235.0
48.67,240.0
48.68,244.0
48.69,240.0
48.7,230.0
48.71,227.0
48.72,235.0
48.73,241.0
48.74,221.0
48.75,230.0
48.76,231.0
48.77,242.0
48.78,244.0
48.79,206.0
48.8,217.0
48.81,206.0
48.82,234.0
48.83,231.0
48.84,232.0
48.85,213.0
48.86,244.0
48.87,215.0
48.88,211.0
48.89,235.0
48.9,229.0
48.91,275.0
48.92,224.0
48.93,221.0
48.94,220.0
48.95,240.0
48.96,241.0
48.97,238.0
48.98,226.0
48.99,249.0
49.0,211.0
49.01,222.0
49.02,229.0
49.03,224.0
49.04,247.0
49.05,241.0
49.06,235.0
49.07,261.0
49.08,225.0
49.09,227.0
49.1,240.0
49.11,218.0
49.12,229.0
49.13,222.0
49.14,233.0
49.15,242.0
49.16,229.0
49.17,236.0
49.18,227.0
49.19,210.0
49.2,210.0
49.21,246.0
49.22,245.0
49.23,248.0
49.24,228.0
49.25,219.0
49.26,220.0
49.27,204.0
49.28,234.0
49.29,266.0
49.3,251.0
49.31,214.0
49.32,240.0
49.33,226.0
49.34,229.0
49.35,257.0
49.36,217.0
49.37,228.0
49.38,236.0
49.39,235.0
49.4,253.0
49.41,238.0
49.42,230.0
49.43,264.0
49.44,252.0
49.45,263.0
49.46,251.0
49.47,270.0
49.48,267.0
49.49,276.0
49.5,258.0
49.51,293.0
49.52,260.0
49.53,272.0
49.54,260.0
49.55,261.0
49.56,252.0
49.57,265.0
49.58,272.0
49.59,245.0
49.6,225.0
49.61,268.0
49.62,280.0
49.63,241.0
49.64,254.0
49.65,236.0
49.66,214.0
49.67,268.0
49.68,259.0
49.69,231.0
49.7,248.0
49.71,270.0
49.72,225.0
49.73,238.0
49.74,206.0
49.75,242.0
49.76,232.0
49.77,249.0
49.78,221.0
49.79,256.0
49.8,230.0
49.81,244.0
49.82,217.0
49.83,250.0
49.84,221.0
49.85,245.0
49.86,208.0
49.87,219.0
49.88,233.0
49.89,243.0
49.9,245.0
49.91,242.0
49.92,219.0
49.93,238.0
49.94,222.0
49.95,211.0
49.96,213.0
49.97,251.0
49.98,224.0
49.99,253.0
50.0,223.0
50.01,213.0
50.02,232.0
50.03,249.0
50.04,212.0
50.05,242.0
50.06,225.0
50.07,230.0
50.08,229.0
50.09,235.0
50.1,242.0
50.11,224.0
50.12,234.0
50.13,235.0
50.14,219.0
50.15,241.0
50.16,202.0
50.17,203.0
50.18,215.0
50.19,239.0
50.2,220.0
50.21,255.0
50.22,214.0
50.23,250.0
50.24,218.0
50.25,218.0
50.26,228.0
50.27,250.0
50.28,234.0
50.29,217.0
50.3,219.0
50.31,252.0
50.32,265.0
50.33,225.0
50.34,202.0
50.35,229.0
50.36,219.0
50.37,247.0
50.38,211.0
50.39,216.0
50.4,254.0
50.41,244.0
50.42,253.0
50.43,217.0
50.44,231.0
50.45,220.0
50.46,228.0
50.47,233.0
50.48,230.0
50.49,221.0
50.5,203.0
50.51,229.0
50.52,219.0
50.53,242.0
50.54,252.0
50.55,218.0
50.56,214.0
50.57,244.0
50.58,235.0
50.59,237.0
50.6,227.0
50.61,227.0
50.62,245.0
50.63,234.0
50.64,233.0
50.65,217.0
50.66,241.0
50.67,240.0
50.68,223.0
50.69,226.0
50.7,227.0
50.71,219.0
50.72,242.0
50.73,205.0
50.74,213.0
50.75,232.0
50.76,227.0
50.77,205.0
50.78,207.0
50.79,245.0
50.8,228.0
50.81,211.0
50.82,223.0
50.83,223.0
50.84,226.0
50.85,245.0
50.86,231.0
50.87,226.0
50.88,232.0
50.89,231.0
50.9,219.0
50.91,230.0
50.92,241.0
50.93,249.0
50.94,233.0
50.95,218.0
50.96,247.0
50.97,216.0
50.98,237.0
50.99,212.0
51.0,216.0
51.01,255.0
51.02,237.0
51.03,243.0
51.04,252.0
51.05,209.0
51.06,214.0
51.07,216.0
51.08,242.0
51.09,234.0
51.1,214.0
51.11,237.0
51.12,221.0
51.13,218.0
51.14,225.0
51.15,239.0
51.16,252.0
51.17,214.0
51.18,195.0
51.19,254.0
51.2,237.0
51.21,204.0
51.22,260.0
51.23,215.0
51.24,254.0
51.25,223.0
51.26,219.0
51.27,219.0
51.28,230.0
51.29,250.0
51.3,219.0
51.31,227.0
51.32,237.0
51.33,223.0
51.34,210.0
51.35,219.0
51.36,226.0
51.37,253.0
51.38,231.0
51.39,237.0
51.4,215.0
51.41,254.0
51.42,200.0
51.43,251.0
51.44,215.0
51.45,222.0
51.46,241.0
51.47,230.0
51.48,233.0
51.49,213.0
51.5,245.0
51.51,227.0
51.52,245.0
51.53,248.0
51.54,219.0
51.55,217.0
51.56,239.0
51.57,236.0
51.58,214.0
51.59,235.0
51.6,233.0
51.61,218.0
51.62,215.0
51.63,244.0
51.64,246.0
51.65,204.0
51.66,219.0
51.67,220.0
51.68,236.0
51.69,230.0
51.7,234.0
51.71,214.0
51.72,221.0
51.73,215.0
51.74,226.0
51.75,218.0
51.76,214.0
51.77,241.0
51.78,215.0
51.79,211.0
51.8,228.0
51.81,217.0
51.82,233.0
51.83,234.0
51.84,244.0
51.85,235.0
51.86,233.0
51.87,240.0
51.88,248.0
51.89,208.0
51.9,249.0
51.91,244.0
51.92,225.0
51.93,235.0
51.94,235.0
51.95,249.0
51.96,236.0
51.97,220.0
51.98,207.0
51.99,203.0
52.0,228.0
52.01,209.0
52.02,251.0
52.03,233.0
52.04,208.0
52.05,218.0
52.06,237.0
52.07,248.0
52.08,228.0
52.09,221.0
52.1,238.0
52.11,230.0
52.12,213.0
52.13,248.0
52.14,215.0
52.15,214.0
52.16,212.0
52.17,244.0
52.18,253.0
52.19,242.0
52.2,213.0
52.21,254.0
52.22,204.0
52.23,233.0
52.24,237.0
52.25,206.0
52.26,208.0
52.27,233.0
52.28,224.0
52.29,242.0
52.3,221.0
52.31,238.0
52.32,218.0
52.33,227.0
52.34,236.0
52.35,227.0
52.36,244.0
52.37,234.0
52.38,229.0
52.39,224.0
52.4,217.0
52.41,200.0
52.42,226.0
52.43,234.0
52.44,235.0
52.45,214.0
52.46,280.0
52.47,238.0
52.48,236.0
52.49,242.0
52.5,214.0
52.51,221.0
52.52,238.0
52.53,240.0
52.54,226.0
52.55,212.0
52.56,202.0
52.57,230.0
52.58,216.0
52.59,241.0
52.6,213.0
52.61,248.0
52.62,243.0
52.63,252.0
52.64,252.0
52.65,220.0
52.66,200.0
52.67,221.0
52.68,223.0
52.69,238.0
52.7,257.0
52.71,243.0
52.72,229.0
52.73,250.0
52.74,228.0
52.75,246.0
52.76,204.0
52.77,221.0
52.78,253.0
52.79,217.0
52.8,239.0
52.81,249.0
52.82,231.0
52.83,257.0
52.84,218.0
52.85,226.0
52.86,260.0
52.87,244.0
52.88,237.0
52.89,216.0
52.9,228.0
52.91,263.0
52.92,236.0
52.93,214.0
52.94,260.0
52.95,235.0
52.96,254.0
52.97,231.0
52.98,211.0
52.99,185.0
53.0,208.0
53.01,252.0
53.02,235.0
53.03,233.0
53.04,265.0
53.05,234.0
53.06,233.0
53.07,206.0
53.08,235.0
53.09,249.0
53.1,243.0
53.11,226.0
53.12,245.0
53.13,244.0
53.14,236.0
53.15,251.0
53.16,229.0
53.17,241.0
53.18,257.0
53.19,264.0
53.2,227.0
53.21,242.0
53.22,208.0
53.23,249.0
53.24,241.0
53.25,217.0
53.26,246.0
53.27,236.0
53.28,253.0
53.29,201.0
53.3,226.0
53.31,232.0
53.32,233.0
53.33,246.0
53.34,263.0
53.35,223.0
53.36,227.0
53.37,217.0
53.38,205.0
53.39,219.0
53.4,228.0
53.41,228.0
53.42,229.0
53.43,224.0
53.44,237.0
53.45,237.0
53.46,231.0
53.47,228.0
53.48,241.0
53.49,236.0
53.5,244.0
53.51,230.0
53.52,217.0
53.53,267.0
53.54,238.0
53.55,231.0
53.56,238.0
53.57,240.0
53.58,243.0
53.59,234.0
53.6,249.0
53.61,239.0
53.62,225.0
53.63,231.0
53.64,227.0
53.65,257.0
53.66,246.0
53.67,236.0
53.68,221.0
53.69,247.0
53.7,247.0
53.71,230.0
53.72,224.0
53.73,250.0
53.74,254.0
53.75,233.0
53.76,244.0
53.77,242.0
53.78,251.0
53.79,229.0
53.8,239.0
53.81,239.0
53.82,256.0
53.83,270.0
53.84,248.0
53.85,279.0
53.86,226.0
53.87,218.0
53.88,237.0
53.89,253.0
53.9,229.0
53.91,251.0
53.92,254.0
53.93,246.0
53.94,241.0
53.95,269.0
53.96,258.0
53.97,239.0
53.98,263.0
53.99,265.0
54.0,271.0
54.01,270.0
54.02,235.0
54.03,263.0
54.04,263.0
54.05,279.0
54.06,279.0
54.07,254.0
54.08,263.0
54.09,314.0
54.1,324.0
54.11,296.0
54.12,314.0
54.13,290.0
54.14,318.0
54.15,291.0
54.16,271.0
54.17,245.0
54.18,274.0
54.19,268.0
54.2,263.0
54.21,263.0
54.22,268.0
54.23,296.0
54.24,274.0
54.25,291.0
54.26,291.0
54.27,274.0
54.28,252.0
54.29,268.0
54.3,248.0
54.31,252.0
54.32,251.0
54.33,273.0
54.34,243.0
54.35,270.0
54.36,251.0
54.37,265.0
54.38,246.0
54.39,273.0
54.4,213.0
54.41,257.0
54.42,212.0
54.43,243.0
54.44,281.0
54.45,238.0
54.46,261.0
54.47,267.0
54.48,268.0
54.49,247.0
54.5,256.0
54.51,240.0
54.52,245.0
54.53,243.0
54.54,216.0
54.55,252.0
54.56,225.0
54.57,226.0
54.58,240.0
54.59,238.0
54.6,250.0
54.61,231.0
54.62,241.0
54.63,237.0
54.64,229.0
54.65,209.0
54.66,210.0
54.67,237.0
54.68,230.0
54.69,203.0
54.7,198.0
54.71,258.0
54.72,235.0
54.73,238.0
54.74,231.0
54.75,227.0
54.76,215.0
54.77,246.0
54.78,229.0
54.79,234.0
54.8,245.0
54.81,243.0
54.82,226.0
54.83,246.0
54.84,213.0
54.85,246.0
54.86,215.0
54.87,231.0
54.88,236.0
54.89,242.0
54.9,220.0
54.91,223.0
54.92,232.0
54.93,241.0
54.94,212.0
54.95,221.0
54.96,232.0
54.97,233.0
54.98,220.0
54.99,247.0
55.0,220.0
55.01,205.0
55.02,224.0
55.03,240.0
55.04,250.0
55.05,256.0
55.06,231.0
55.07,248.0
55.08,215.0
55.09,239.0
55.1,230.0
55.11,239.0
55.12,253.0
55.13,243.0
55.14,215.0
55.15,245.0
55.16,233.0
55.17,229.0
55.18,226.0
55.19,214.0
55.2,266.0
55.21,252.0
55.22,252.0
55.23,196.0
55.24,239.0
55.25,248.0
55.26,232.0
55.27,266.0
55.28,222.0
55.29,236.0
55.3,245.0
55.31,229.0
55.32,202.0
55.33,238.0
55.34,229.0
55.35,223.0
55.36,260.0
55.37,234.0
55.38,231.0
55.39,230.0
55.4,227.0
55.41,238.0
55.42,211.0
55.43,274.0
55.44,219.0
55.45,222.0
55.46,223.0
55.47,223.0
55.48,221.0
55.49,248.0
55.5,223.0
55.51,234.0
55.52,235.0
55.53,253.0
55.54,241.0
55.55,212.0
55.56,244.0
55.57,214.0
55.58,184.0
55.59,233.0
55.6,240.0
55.61,196.0
55.62,206.0
55.63,235.0
55.64,214.0
55.65,225.0
55.66,267.0
55.67,228.0
55.68,232.0
55.69,224.0
55.7,223.0
55.71,261.0
55.72,239.0
55.73,235.0
55.74,206.0
55.75,206.0
55.76,235.0
55.77,234.0
55.78,249.0
55.79,245.0
55.8,245.0
55.81,226.0
55.82,227.0
55.83,233.0
55.84,256.0
55.85,191.0
55.86,209.0
55.87,283.0
55.88,241.0
55.89,252.0
55.9,232.0
55.91,227.0
55.92,225.0
55.93,246.0
55.94,241.0
55.95,201.0
55.96,232.0
55.97,236.0
55.98,244.0
55.99,241.0
56.0,229.0
56.01,242.0
56.02,246.0
56.03,248.0
56.04,247.0
56.05,243.0
56.06,209.0
56.07,239.0
56.08,218.0
56.09,240.0
56.1,224.0
56.11,232.0
56.12,261.0
56.13,245.0
56.14,255.0
56.15,241.0
56.16,238.0
56.17,225.0
56.18,248.0
56.19,233.0
56.2,238.0
56.21,211.0
56.22,232.0
56.23,242.0
56.24,238.0
56.25,221.0
56.26,225.0
56.27,239.0
56.28,225.0
56.29,230.0
56.3,211.0
56.31,220.0
56.32,255.0
56.33,223.0
56.34,215.0
56.35,229.0
56.36,255.0
56.37,246.0
56.38,231.0
56.39,258.0
56.4,248.0
56.41,230.0
56.42,223.0
56.43,242.0
56.44,225.0
56.45,221.0
56.46,259.0
56.47,235.0
56.48,232.0
56.49,217.0
56.5,230.0
56.51,225.0
56.52,263.0
56.53,226.0
56.54,228.0
56.55,219.0
56.56,240.0
56.57,249.0
56.58,244.0
56.59,230.0
56.6,228.0
56.61,281.0
56.62,224.0
56.63,220.0
56.64,213.0
56.65,220.0
56.66,247.0
56.67,204.0
56.68,245.0
56.69,232.0
56.7,227.0
56.71,239.0
56.72,253.0
56.73,236.0
56.74,236.0
56.75,236.0
56.76,245.0
56.77,214.0
56.78,255.0
56.79,229.0
56.8,261.0
56.81,239.0
56.82,246.0
56.83,204.0
56.84,248.0
56.85,282.0
56.86,212.0
56.87,247.0
56.88,243.0
56.89,246.0
56.9,228.0
56.91,232.0
56.92,230.0
56.93,235.0
56.94,244.0
56.95,226.0
56.96,236.0
56.97,274.0
56.98,233.0
56.99,298.0
57.0,276.0
57.01,251.0
57.02,221.0
57.03,257.0
57.04,237.0
57.05,252.0
57.06,255.0
57.07,263.0
57.08,245.0
57.09,266.0
57.1,253.0
57.11,221.0
57.12,231.0
57.13,242.0
57.14,239.0
57.15,236.0
57.16,250.0
57.17,242.0
57.18,253.0
57.19,237.0
57.2,254.0
57.21,224.0
57.22,243.0
57.23,201.0
57.24,246.0
57.25,250.0
57.26,241.0
57.27,246.0
57.28,222.0
57.29,223.0
57.3,241.0
57.31,251.0
57.32,219.0
57.33,226.0
57.34,274.0
57.35,216.0
57.36,242.0
57.37,248.0
57.38,245.0
57.39,226.0
57.4,268.0
57.41,232.0
57.42,209.0
57.43,258.0
57.44,257.0
57.45,242.0
57.46,244.0
57.47,234.0
57.48,240.0
57.49,223.0
57.5,228.0
57.51,229.0
57.52,244.0
57.53,226.0
57.54,226.0
57.55,240.0
57.56,266.0
57.57,214.0
57.58,218.0
57.59,242.0
57.6,227.0
57.61,211.0
57.62,251.0
57.63,237.0
57.64,239.0
57.65,255.0
57.66,247.0
57.67,291.0
57.68,268.0
57.69,247.0
57.7,250.0
57.71,232.0
57.72,267.0
57.73,233.0
57.74,237.0
57.75,250.0
57.76,263.0
57.77,253.0
57.78,266.0
57.79,235.0
57.8,260.0
57.81,221.0
57.82,228.0
57.83,268.0
57.84,241.0
57.85,252.0
57.86,240.0
57.87,196.0
57.88,255.0
57.89,242.0
57.9,230.0
57.91,250.0
57.92,245.0
57.93,262.0
57.94,245.0
57.95,252.0
57.96,229.0
57.97,219.0
57.98,229.0
57.99,208.0
58.0,237.0
58.01,239.0
58.02,224.0
58.03,236.0
58.04,253.0
58.05,216.0
58.06,236.0
58.07,240.0
58.08,220.0
58.09,222.0
58.1,230.0
58.11,239.0
58.12,239.0
58.13,216.0
58.14,226.0
58.15,232.0
58.16,212.0
58.17,210.0
58.18,231.0
58.19,223.0
58.2,228.0
58.21,220.0
58.22,250.0
58.23,241.0
58.24,266.0
58.25,230.0
58.26,245.0
58.27,222.0
58.28,242.0
58.29,241.0
58.3,237.0
58.31,267.0
58.32,272.0
58.33,252.0
58.34,257.0
58.35,244.0
58.36,234.0
58.37,272.0
58.38,238.0
58.39,235.0
58.4,227.0
58.41,212.0
58.42,220.0
58.43,211.0
58.44,228.0
58.45,262.0
58.46,219.0
58.47,218.0
58.48,260.0
58.49,254.0
58.5,237.0
58.51,223.0
58.52,221.0
58.53,249.0
58.54,189.0
58.55,239.0
58.56,243.0
58.57,255.0
58.58,237.0
58.59,265.0
58.6,218.0
58.61,248.0
58.62,199.0
58.63,217.0
58.64,244.0
58.65,233.0
58.66,221.0
58.67,224.0
58.68,256.0
58.69,241.0
58.7,217.0
58.71,222.0
58.72,254.0
58.73,242.0
58.74,253.0
58.75,239.0
58.76,229.0
58.77,236.0
58.78,254.0
58.79,239.0
58.8,254.0
58.81,212.0
58.82,220.0
58.83,225.0
58.84,235.0
58.85,242.0
58.86,204.0
58.87,220.0
58.88,263.0
58.89,223.0
58.9,236.0
58.91,201.0
58.92,228.0
58.93,249.0
58.94,230.0
58.95,238.0
58.96,228.0
58.97,225.0
58.98,253.0
58.99,240.0
59.0,223.0
59.01,238.0
59.02,220.0
59.03,223.0
59.04,220.0
59.05,247.0
59.06,252.0
59.07,227.0
59.08,228.0
59.09,216.0
59.1,232.0
59.11,227.0
59.12,231.0
59.13,263.0
59.14,240.0
59.15,237.0
59.16,253.0
59.17,194.0
59.18,239.0
59.19,257.0
59.2,243.0
59.21,246.0
59.22,214.0
59.23,213.0
59.24,227.0
59.25,196.0
59.26,235.0
59.27,214.0
59.28,227.0
59.29,234.0
59.3,246.0
59.31,238.0
59.32,252.0
59.33,248.0
59.34,219.0
59.35,233.0
59.36,212.0
59.37,237.0
59.38,217.0
59.39,217.0
59.4,202.0
59.41,253.0
59.42,252.0
59.43,234.0
59.44,242.0
59.45,235.0
59.46,271.0
59.47,262.0
59.48,222.0
59.49,189.0
59.5,260.0
59.51,253.0
59.52,224.0
59.53,249.0
59.54,248.0
59.55,240.0
59.56,214.0
59.57,222.0
59.58,238.0
59.59,230.0
59.6,224.0
59.61,222.0
59.62,225.0
59.63,234.0
59.64,247.0
59.65,246.0
59.66,221.0
59.67,243.0
59.68,232.0
59.69,234.0
59.7,222.0
59.71,243.0
59.72,258.0
59.73,223.0
59.74,223.0
59.75,229.0
59.76,225.0
59.77,222.0
59.78,229.0
59.79,255.0
59.8,226.0
59.81,234.0
59.82,230.0
59.83,225.0
59.84,219.0
59.85,236.0
59.86,237.0
59.87,224.0
59.88,237.0
59.89,238.0
59.9,235.0
59.91,224.0
59.92,247.0
59.93,232.0
59.94,228.0
59.95,231.0
59.96,231.0
59.97,261.0
59.98,243.0
59.99,209.0
60.0,285.0
60.01,223.0
60.02,213.0
60.03,231.0
60.04,261.0
60.05,223.0
60.06,267.0
60.07,232.0
60.08,228.0
60.09,246.0
60.1,259.0
60.11,223.0
60.12,246.0
60.13,247.0
60.14,239.0
60.15,274.0
60.16,255.0
60.17,215.0
60.18,227.0
60.19,229.0
60.2,236.0
60.21,239.0
60.22,207.0
60.23,223.0
60.24,235.0
60.25,242.0
60.26,224.0
60.27,258.0
60.28,212.0
60.29,234.0
60.3,238.0
60.31,216.0
60.32,250.0
60.33,262.0
60.34,248.0
60.35,242.0
60.36,238.0
60.37,253.0
60.38,259.0
60.39,235.0
60.4,225.0
60.41,232.0
60.42,252.0
60.43,236.0
60.44,220.0
60.45,235.0
60.46,229.0
60.47,249.0
60.48,269.0
60.49,221.0
60.5,244.0
60.51,245.0
60.52,245.0
60.53,248.0
60.54,258.0
60.55,205.0
60.56,240.0
60.57,264.0
60.58,229.0
60.59,243.0
60.6,214.0
60.61,225.0
60.62,256.0
60.63,223.0
60.64,224.0
60.65,217.0
60.66,246.0
60.67,226.0
60.68,227.0
60.69,221.0
60.7,253.0
60.71,240.0
60.72,229.0
60.73,263.0
60.74,241.0
60.75,210.0
60.76,250.0
60.77,252.0
60.78,242.0
60.79,236.0
60.8,246.0
60.81,234.0
60.82,227.0
60.83,236.0
60.84,230.0
60.85,243.0
60.86,243.0
60.87,251.0
60.88,232.0
60.89,243.0
60.9,274.0
60.91,259.0
60.92,214.0
60.93,233.0
60.94,230.0
60.95,234.0
60.96,237.0
60.97,239.0
60.98,231.0
60.99,246.0
61.0,228.0
61.01,272.0
61.02,247.0
61.03,248.0
61.04,217.0
61.05,245.0
61.06,229.0
61.07,224.0
61.08,233.0
61.09,219.0
61.1,250.0
61.11,249.0
61.12,230.0
61.13,225.0
61.14,250.0
61.15,231.0
61.16,227.0
61.17,254.0
61.18,221.0
61.19,225.0
61.2,218.0
61.21,232.0
61.22,236.0
61.23,229.0
61.24,265.0
61.25,246.0
61.26,236.0
61.27,236.0
61.28,224.0
61.29,231.0
61.3,244.0
61.31,249.0
61.32,256.0
61.33,194.0
61.34,237.0
61.35,228.0
61.36,245.0
61.37,248.0
61.38,246.0
61.39,235.0
61.4,237.0
61.41,251.0
61.42,233.0
61.43,239.0
61.44,219.0
61.45,234.0
61.46,253.0
61.47,255.0
61.48,227.0
61.49,219.0
61.5,247.0
61.51,230.0
61.52,242.0
61.53,244.0
61.54,234.0
61.55,214.0
61.56,219.0
61.57,246.0
61.58,247.0
61.59,246.0
61.6,230.0
61.61,248.0
61.62,231.0
61.63,231.0
61.64,250.0
61.65,227.0
61.66,232.0
61.67,271.0
61.68,237.0
61.69,258.0
61.7,255.0
61.71,252.0
61.72,218.0
61.73,263.0
61.74,233.0
61.75,223.0
61.76,235.0
61.77,228.0
61.78,252.0
61.79,232.0
61.8,253.0
61.81,212.0
61.82,258.0
61.83,239.0
61.84,255.0
61.85,247.0
61.86,224.0
61.87,223.0
61.88,228.0
61.89,276.0
61.9,247.0
61.91,232.0
61.92,242.0
61.93,238.0
61.94,224.0
61.95,237.0
61.96,237.0
61.97,246.0
61.98,235.0
61.99,217.0
62.0,220.0
62.01,249.0
62.02,217.0
62.03,220.0
62.04,240.0
62.05,232.0
62.06,243.0
62.07,261.0
62.08,233.0
62.09,231.0
62.1,241.0
62.11,253.0
62.12,239.0
62.13,231.0
62.14,263.0
62.15,251.0
62.16,238.0
62.17,258.0
62.18,226.0
62.19,225.0
62.2,252.0
62.21,239.0
62.22,241.0
62.23,217.0
62.24,224.0
62.25,230.0
62.26,234.0
62.27,260.0
62.28,280.0
62.29,247.0
62.3,242.0
62.31,201.0
62.32,225.0
62.33,239.0
62.34,266.0
62.35,274.0
62.36,254.0
62.37,230.0
62.38,259.0
62.39,264.0
62.4,244.0
62.41,231.0
62.42,270.0
62.43,283.0
62.44,273.0
62.45,253.0
62.46,298.0
62.47,299.0
62.48,302.0
62.49,258.0
62.5,259.0
62.51,272.0
62.52,251.0
62.53,282.0
62.54,289.0
62.55,237.0
62.56,255.0
62.57,258.0
62.58,294.0
62.59,250.0
62.6,306.0
62.61,278.0
62.62,274.0
62.63,291.0
62.64,258.0
62.65,286.0
62.66,261.0
62.67,244.0
62.68,244.0
62.69,244.0
62.7,242.0
62.71,259.0
62.72,235.0
62.73,277.0
62.74,239.0
62.75,264.0
62.76,231.0
62.77,263.0
62.78,242.0
62.79,239.0
62.8,268.0
62.81,220.0
62.82,257.0
62.83,229.0
62.84,253.0
62.85,256.0
62.86,221.0
62.87,259.0
62.88,263.0
62.89,255.0
62.9,213.0
62.91,257.0
62.92,228.0
62.93,252.0
62.94,237.0
62.95,258.0
62.96,257.0
62.97,226.0
62.98,256.0
62.99,244.0
63.0,241.0
63.01,234.0
63.02,229.0
63.03,218.0
63.04,247.0
63.05,242.0
63.06,254.0
63.07,235.0
63.08,219.0
63.09,256.0
63.1,278.0
63.11,224.0
63.12,194.0
63.13,260.0
63.14,250.0
63.15,227.0
63.16,229.0
63.17,227.0
63.18,245.0
63.19,214.0
63.2,251.0
63.21,255.0
63.22,238.0
63.23,243.0
63.24,234.0
63.25,250.0
63.26,238.0
63.27,260.0
63.28,248.0
63.29,245.0
63.3,242.0
63.31,214.0
63.32,230.0
63.33,240.0
63.34,234.0
63.35,246.0
63.36,260.0
63.37,235.0
63.38,243.0
63.39,251.0
63.4,255.0
63.41,246.0
63.42,258.0
63.43,261.0
63.44,228.0
63.45,225.0
63.46,251.0
63.47,269.0
63.48,263.0
63.49,240.0
63.5,259.0
63.51,246.0
63.52,244.0
63.53,233.0
63.54,261.0
63.55,248.0
63.56,278.0
63.57,230.0
63.58,225.0
63.59,252.0
63.6,236.0
63.61,237.0
63.62,226.0
63.63,244.0
63.64,240.0
63.65,262.0
63.66,251.0
63.67,249.0
63.68,263.0
63.69,226.0
63.7,231.0
63.71,225.0
63.72,245.0
63.73,219.0
63.74,230.0
63.75,259.0
63.76,215.0
63.77,270.0
63.78,211.0
63.79,241.0
63.8,242.0
63.81,280.0
63.82,236.0
63.83,249.0
63.84,242.0
63.85,239.0
63.86,238.0
63.87,236.0
63.88,278.0
63.89,229.0
63.9,262.0
63.91,247.0
63.92,273.0
63.93,244.0
63.94,220.0
63.95,259.0
63.96,272.0
63.97,284.0
63.98,288.0
63.99,263.0
64.0,272.0
64.01,277.0
64.02,293.0
64.03,293.0
64.04,277.0
64.05,294.0
64.06,281.0
64.07,259.0
64.08,278.0
64.09,284.0
64.1,232.0
64.11,282.0
64.12,263.0
64.13,279.0
64.14,255.0
64.15,267.0
64.16,284.0
64.17,274.0
64.18,263.0
64.19,260.0
64.2,251.0
64.21,262.0
64.22,258.0
64.23,270.0
64.24,282.0
64.25,272.0
64.26,261.0
64.27,259.0
64.28,265.0
64.29,253.0
64.3,242.0
64.31,269.0
64.32,280.0
64.33,245.0
64.34,248.0
64.35,251.0
64.36,243.0
64.37,222.0
64.38,234.0
64.39,277.0
64.4,243.0
64.41,255.0
64.42,254.0
64.43,258.0
64.44,263.0
64.45,234.0
64.46,252.0
64.47,250.0
64.48,236.0
64.49,244.0
64.5,255.0
64.51,222.0
64.52,246.0
64.53,254.0
64.54,238.0
64.55,236.0
64.56,230.0
64.57,234.0
64.58,217.0
64.59,231.0
64.6,235.0
64.61,270.0
64.62,237.0
64.63,265.0
64.64,251.0
64.65,255.0
64.66,236.0
64.67,247.0
64.68,233.0
64.69,230.0
64.7,223.0
64.71,265.0
64.72,237.0
64.73,257.0
64.74,257.0
64.75,221.0
64.76,209.0
64.77,246.0
64.78,218.0
64.79,216.0
64.8,266.0
64.81,222.0
64.82,208.0
64.83,238.0
64.84,247.0
64.85,241.0
64.86,258.0
64.87,226.0
64.88,264.0
64.89,238.0
64.9,233.0
64.91,250.0
64.92,247.0
64.93,222.0
64.94,215.0
64.95,240.0
64.96,221.0
64.97,237.0
64.98,251.0
64.99,251.0
65.0,238.0
65.01,254.0
65.02,251.0
65.03,229.0
65.04,217.0
65.05,231.0
65.06,225.0
65.07,235.0
65.08,228.0
65.09,251.0
65.1,246.0
65.11,218.0
65.12,249.0
65.13,223.0
65.14,246.0
65.15,252.0
65.16,243.0
65.17,238.0
65.18,244.0
65.19,274.0
65.2,257.0
65.21,262.0
65.22,223.0
65.23,240.0
65.24,257.0
65.25,226.0
65.26,228.0
65.27,243.0
65.28,229.0
65.29,236.0
65.3,240.0
65.31,252.0
65.32,217.0
65.33,228.0
65.34,254.0
65.35,248.0
65.36,247.0
65.37,231.0
65.38,242.0
65.39,216.0
65.4,250.0
65.41,219.0
65.42,228.0
65.43,223.0
65.44,214.0
65.45,231.0
65.46,248.0
65.47,234.0
65.48,251.0
65.49,223.0
65.5,254.0
65.51,215.0
65.52,224.0
65.53,251.0
65.54,271.0
65.55,221.0
65.56,223.0
65.57,264.0
65.58,212.0
65.59,241.0
65.6,229.0
65.61,206.0
65.62,256.0
65.63,227.0
65.64,243.0
65.65,234.0
65.66,247.0
65.67,239.0
65.68,207.0
65.69,246.0
65.7,246.0
65.71,246.0
65.72,220.0
65.73,275.0
65.74,238.0
65.75,244.0
65.76,218.0
65.77,218.0
65.78,228.0
65.79,229.0
65.8,266.0
65.81,214.0
65.82,241.0
65.83,235.0
65.84,241.0
65.85,244.0
65.86,221.0
65.87,221.0
65.88,238.0
65.89,224.0
65.9,247.0
65.91,249.0
65.92,256.0
65.93,249.0
65.94,241.0
65.95,231.0
65.96,236.0
65.97,240.0
65.98,225.0
65.99,227.0
66.0,251.0
66.01,262.0
66.02,215.0
66.03,256.0
66.04,237.0
66.05,246.0
66.06,243.0
66.07,254.0
66.08,264.0
66.09,249.0
66.1,258.0
66.11,262.0
66.12,253.0
66.13,240.0
66.14,236.0
66.15,249.0
66.16,224.0
66.17,262.0
66.18,253.0
66.19,234.0
66.2,225.0
66.21,276.0
66.22,217.0
66.23,245.0
66.24,241.0
66.25,237.0
66.26,241.0
66.27,251.0
66.28,255.0
66.29,220.0
66.3,226.0
66.31,240.0
66.32,249.0
66.33,270.0
66.34,245.0
66.35,287.0
66.36,232.0
66.37,230.0
66.38,225.0
66.39,256.0
66.4,237.0
66.41,216.0
66.42,270.0
66.43,259.0
66.44,255.0
66.45,225.0
66.46,231.0
66.47,223.0
66.48,267.0
66.49,226.0
66.5,245.0
66.51,276.0
66.52,251.0
66.53,219.0
66.54,236.0
66.55,235.0
66.56,257.0
66.57,253.0
66.58,259.0
66.59,256.0
66.6,240.0
66.61,225.0
66.62,241.0
66.63,234.0
66.64,239.0
66.65,239.0
66.66,260.0
66.67,247.0
66.68,243.0
66.69,252.0
66.7,247.0
66.71,216.0
66.72,245.0
66.73,262.0
66.74,245.0
66.75,245.0
66.76,256.0
66.77,246.0
66.78,236.0
66.79,233.0
66.8,230.0
66.81,260.0
66.82,218.0
66.83,248.0
66.84,216.0
66.85,221.0
66.86,242.0
66.87,256.0
66.88,253.0
66.89,234.0
66.9,216.0
66.91,251.0
66.92,233.0
66.93,228.0
66.94,250.0
66.95,259.0
66.96,233.0
66.97,244.0
66.98,230.0
66.99,236.0
67.0,225.0
67.01,215.0
67.02,248.0
67.03,277.0
67.04,223.0
67.05,249.0
67.06,254.0
67.07,265.0
67.08,254.0
67.09,238.0
67.1,266.0
67.11,239.0
67.12,231.0
67.13,236.0
67.14,257.0
67.15,195.0
67.16,269.0
67.17,258.0
67.18,256.0
67.19,227.0
67.2,243.0
67.21,244.0
67.22,235.0
67.23,210.0
67.24,241.0
67.25,233.0
67.26,267.0
67.27,221.0
67.28,255.0
67.29,245.0
67.3,255.0
67.31,246.0
67.32,231.0
67.33,266.0
67.34,229.0
67.35,238.0
67.36,225.0
67.37,241.0
67.38,218.0
67.39,246.0
67.4,220.0
67.41,249.0
67.42,250.0
67.43,236.0
67.44,235.0
67.45,227.0
67.46,244.0
67.47,221.0
67.48,232.0
67.49,234.0
67.5,231.0
67.51,238.0
67.52,226.0
67.53,227.0
67.54,253.0
67.55,246.0
67.56,248.0
67.57,266.0
67.58,232.0
67.59,236.0
67.6,238.0
67.61,254.0
67.62,262.0
67.63,229.0
67.64,215.0
67.65,231.0
67.66,234.0
67.67,253.0
67.68,238.0
67.69,264.0
67.7,246.0
67.71,250.0
67.72,258.0
67.73,252.0
67.74,243.0
67.75,249.0
67.76,224.0
67.77,232.0
67.78,220.0
67.79,256.0
67.8,241.0
67.81,269.0
67.82,256.0
67.83,212.0
67.84,236.0
67.85,230.0
67.86,219.0
67.87,235.0
67.88,254.0
67.89,266.0
67.9,228.0
67.91,224.0
67.92,231.0
67.93,237.0
67.94,230.0
67.95,222.0
67.96,239.0
67.97,205.0
67.98,241.0
67.99,230.0
68.0,219.0
68.01,227.0
68.02,236.0
68.03,225.0
68.04,239.0
68.05,264.0
68.06,228.0
68.07,270.0
68.08,233.0
68.09,227.0
68.1,244.0
68.11,248.0
68.12,249.0
68.13,285.0
68.14,236.0
68.15,238.0
68.16,241.0
68.17,259.0
68.18,259.0
68.19,236.0
68.2,234.0
68.21,259.0
68.22,270.0
68.23,246.0
68.24,253.0
68.25,234.0
68.26,268.0
68.27,251.0
68.28,240.0
68.29,201.0
68.3,233.0
68.31,245.0
68.32,230.0
68.33,252.0
68.34,258.0
68.35,241.0
68.36,222.0
68.37,253.0
68.38,251.0
68.39,234.0
68.4,239.0
68.41,265.0
68.42,238.0
68.43,226.0
68.44,225.0
68.45,263.0
68.46,244.0
68.47,254.0
68.48,224.0
68.49,206.0
68.5,245.0
68.51,255.0
68.52,261.0
68.53,226.0
68.54,272.0
68.55,254.0
68.56,266.0
68.57,238.0
68.58,248.0
68.59,227.0
68.6,230.0
68.61,238.0
68.62,198.0
68.63,263.0
68.64,254.0
68.65,239.0
68.66,217.0
68.67,265.0
68.68,236.0
68.69,248.0
68.7,210.0
68.71,218.0
68.72,255.0
68.73,222.0
68.74,254.0
68.75,227.0
68.76,229.0
68.77,243.0
68.78,246.0
68.79,230.0
68.8,220.0
68.81,217.0
68.82,225.0
68.83,229.0
68.84,266.0
68.85,209.0
68.86,233.0
68.87,246.0
68.88,243.0
68.89,252.0
68.9,265.0
68.91,255.0
68.92,238.0
68.93,243.0
68.94,250.0
68.95,226.0
68.96,236.0
68.97,245.0
68.98,255.0
68.99,230.0
69.0,260.0
69.01,234.0
69.02,243.0
69.03,261.0
69.04,225.0
69.05,224.0
69.06,250.0
69.07,241.0
69.08,263.0
69.09,240.0
69.1,268.0
69.11,220.0
69.12,245.0
69.13,232.0
69.14,258.0
69.15,222.0
69.16,264.0
69.17,227.0
69.18,272.0
69.19,246.0
69.2,242.0
69.21,219.0
69.22,242.0
69.23,222.0
69.24,239.0
69.25,242.0
69.26,237.0
69.27,236.0
69.28,228.0
69.29,268.0
69.3,240.0
69.31,231.0
69.32,240.0
69.33,203.0
69.34,258.0
69.35,227.0
69.36,252.0
69.37,268.0
69.38,249.0
69.39,240.0
69.4,214.0
69.41,238.0
69.42,212.0
69.43,224.0
69.44,255.0
69.45,229.0
69.46,240.0
69.47,257.0
69.48,236.0
69.49,237.0
69.5,225.0
69.51,258.0
69.52,244.0
69.53,242.0
69.54,227.0
69.55,243.0
69.56,246.0
69.57,232.0
69.58,230.0
69.59,249.0
69.6,234.0
69.61,249.0
69.62,273.0
69.63,272.0
69.64,279.0
69.65,242.0
69.66,227.0
69.67,244.0
69.68,235.0
69.69,238.0
69.7,225.0
69.71,224.0
69.72,275.0
69.73,267.0
69.74,233.0
69.75,235.0
69.76,213.0
69.77,258.0
69.78,249.0
69.79,235.0
69.8,255.0
69.81,230.0
69.82,232.0
69.83,260.0
69.84,258.0
69.85,231.0
69.86,259.0
69.87,245.0
69.88,248.0
69.89,209.0
69.9,234.0
69.91,253.0
69.92,251.0
69.93,262.0
69.94,202.0
69.95,248.0
69.96,225.0
69.97,221.0
69.98,238.0
69.99,231.0
70.0,240.0
70.01,252.0
70.02,240.0
70.03,277.0
70.04,241.0
70.05,235.0
70.06,237.0
70.07,232.0
70.08,247.0
70.09,235.0
70.1,220.0
70.11,248.0
70.12,241.0
70.13,262.0
70.14,248.0
70.15,234.0
70.16,260.0
70.17,232.0
70.18,269.0
70.19,245.0
70.2,235.0
70.21,243.0
70.22,245.0
70.23,220.0
70.24,270.0
70.25,221.0
70.26,237.0
70.27,250.0
70.28,229.0
70.29,206.0
70.3,241.0
70.31,234.0
70.32,230.0
70.33,269.0
70.34,245.0
70.35,237.0
70.36,244.0
70.37,238.0
70.38,227.0
70.39,222.0
70.4,259.0
70.41,245.0
70.42,237.0
70.43,241.0
70.44,249.0
70.45,230.0
70.46,246.0
70.47,236.0
70.48,261.0
70.49,209.0
70.5,225.0
70.51,264.0
70.52,238.0
70.53,254.0
70.54,232.0
70.55,215.0
70.56,228.0
70.57,275.0
70.58,232.0
70.59,252.0
70.6,251.0
70.61,233.0
70.62,237.0
70.63,228.0
70.64,238.0
70.65,231.0
70.66,280.0
70.67,240.0
70.68,227.0
70.69,254.0
70.7,217.0
70.71,240.0
70.72,251.0
70.73,233.0
70.74,247.0
70.75,240.0
70.76,250.0
70.77,237.0
70.78,247.0
70.79,251.0
70.8,265.0
70.81,258.0
70.82,264.0
70.83,231.0
70.84,263.0
70.85,237.0
70.86,240.0
70.87,233.0
70.88,229.0
70.89,255.0
70.9,208.0
70.91,245.0
70.92,226.0
70.93,255.0
70.94,222.0
70.95,239.0
70.96,270.0
70.97,253.0
70.98,264.0
70.99,223.0
71.0,233.0
71.01,255.0
71.02,249.0
71.03,259.0
71.04,235.0
71.05,252.0
71.06,268.0
71.07,255.0
71.08,260.0
71.09,230.0
71.1,250.0
71.11,219.0
71.12,219.0
71.13,242.0
71.14,263.0
71.15,224.0
71.16,262.0
71.17,257.0
71.18,256.0
71.19,231.0
71.2,265.0
71.21,243.0
71.22,230.0
71.23,249.0
71.24,252.0
71.25,234.0
71.26,245.0
71.27,250.0
71.28,238.0
71.29,242.0
71.3,220.0
71.31,244.0
71.32,243.0
71.33,245.0
71.34,242.0
71.35,260.0
71.36,236.0
71.37,234.0
71.38,251.0
71.39,281.0
71.4,263.0
71.41,228.0
71.42,237.0
71.43,282.0
71.44,248.0
71.45,241.0
71.46,224.0
71.47,276.0
71.48,224.0
71.49,237.0
71.5,231.0
71.51,269.0
71.52,238.0
71.53,254.0
71.54,242.0
71.55,247.0
71.56,250.0
71.57,254.0
71.58,248.0
71.59,256.0
71.6,248.0
71.61,216.0
71.62,277.0
71.63,246.0
71.64,242.0
71.65,229.0
71.66,238.0
71.67,264.0
71.68,217.0
71.69,253.0
71.7,248.0
71.71,242.0
71.72,256.0
71.73,245.0
71.74,255.0
71.75,230.0
71.76,246.0
71.77,254.0
71.78,238.0
71.79,253.0
71.8,238.0
71.81,227.0
71.82,219.0
71.83,243.0
71.84,237.0
71.85,252.0
71.86,256.0
71.87,237.0
71.88,244.0
71.89,238.0
71.9,249.0
71.91,256.0
71.92,260.0
71.93,259.0
71.94,260.0
71.95,270.0
71.96,265.0
71.97,240.0
71.98,281.0
71.99,238.0
72.0,262.0
72.01,233.0
72.02,248.0
72.03,258.0
72.04,283.0
72.05,255.0
72.06,240.0
72.07,234.0
72.08,254.0
72.09,249.0
72.1,237.0
72.11,222.0
72.12,261.0
72.13,255.0
72.14,241.0
72.15,257.0
72.16,250.0
72.17,227.0
72.18,228.0
72.19,247.0
72.2,263.0
72.21,253.0
72.22,242.0
72.23,257.0
72.24,275.0
72.25,244.0
72.26,270.0
72.27,233.0
72.28,250.0
72.29,233.0
72.3,254.0
72.31,253.0
72.32,240.0
72.33,251.0
72.34,255.0
72.35,251.0
72.36,231.0
72.37,263.0
72.38,266.0
72.39,263.0
72.4,260.0
72.41,254.0
72.42,228.0
72.43,250.0
72.44,241.0
72.45,222.0
72.46,260.0
72.47,232.0
72.48,245.0
72.49,244.0
72.5,235.0
72.51,271.0
72.52,262.0
72.53,254.0
72.54,247.0
72.55,247.0
72.56,230.0
72.57,212.0
72.58,243.0
72.59,251.0
72.6,251.0
72.61,247.0
72.62,245.0
72.63,227.0
72.64,254.0
72.65,248.0
72.66,267.0
72.67,254.0
72.68,225.0
72.69,213.0
72.7,221.0
72.71,236.0
72.72,237.0
72.73,227.0
72.74,244.0
72.75,249.0
72.76,237.0
72.77,248.0
72.78,218.0
72.79,236.0
72.8,244.0
72.81,216.0
72.82,239.0
72.83,274.0
72.84,255.0
72.85,215.0
72.86,262.0
72.87,230.0
72.88,255.0
72.89,233.0
72.9,240.0
72.91,262.0
72.92,268.0
72.93,265.0
72.94,224.0
72.95,254.0
72.96,240.0
72.97,239.0
72.98,241.0
72.99,277.0
73.0,236.0
73.01,246.0
73.02,258.0
73.03,274.0
73.04,208.0
73.05,252.0
73.06,213.0
73.07,252.0
73.08,236.0
73.09,271.0
73.1,225.0
73.11,238.0
73.12,234.0
73.13,297.0
73.14,230.0
73.15,251.0
73.16,245.0
73.17,262.0
73.18,246.0
73.19,223.0
73.2,250.0
73.21,216.0
73.22,233.0
73.23,241.0
73.24,251.0
73.25,267.0
73.26,232.0
73.27,252.0
73.28,243.0
73.29,239.0
73.3,249.0
73.31,266.0
73.32,250.0
73.33,206.0
73.34,239.0
73.35,267.0
73.36,253.0
73.37,236.0
73.38,225.0
73.39,262.0
73.4,257.0
73.41,228.0
73.42,243.0
73.43,231.0
73.44,251.0
73.45,255.0
73.46,257.0
73.47,230.0
73.48,264.0
73.49,270.0
73.5,250.0
73.51,261.0
73.52,252.0
73.53,225.0
73.54,240.0
73.55,271.0
73.56,226.0
73.57,238.0
73.58,227.0
73.59,241.0
73.6,228.0
73.61,256.0
73.62,214.0
73.63,267.0
73.64,234.0
73.65,215.0
73.66,234.0
73.67,271.0
73.68,241.0
73.69,247.0
73.7,231.0
73.71,270.0
73.72,224.0
73.73,252.0
73.74,243.0
73.75,229.0
73.76,249.0
73.77,261.0
73.78,245.0
73.79,237.0
73.8,256.0
73.81,228.0
73.82,268.0
73.83,254.0
73.84,256.0
73.85,237.0
73.86,233.0
73.87,226.0
73.88,227.0
73.89,245.0
73.9,230.0
73.91,230.0
73.92,220.0
73.93,234.0
73.94,235.0
73.95,256.0
73.96,217.0
73.97,220.0
73.98,239.0
73.99,264.0
74.0,246.0
74.01,260.0
74.02,255.0
74.03,244.0
74.04,241.0
74.05,246.0
74.06,217.0
74.07,239.0
74.08,243.0
74.09,262.0
74.1,254.0
74.11,216.0
74.12,264.0
74.13,271.0
74.14,216.0
74.15,211.0
74.16,270.0
74.17,239.0
74.18,263.0
74.19,231.0
74.2,245.0
74.21,233.0
74.22,244.0
74.23,254.0
74.24,244.0
74.25,243.0
74.26,242.0
74.27,229.0
74.28,246.0
74.29,248.0
74.3,232.0
74.31,234.0
74.32,246.0
74.33,233.0
74.34,238.0
74.35,263.0
74.36,262.0
74.37,250.0
74.38,247.0
74.39,262.0
74.4,245.0
74.41,227.0
74.42,235.0
74.43,263.0
74.44,261.0
74.45,229.0
74.46,226.0
74.47,230.0
74.48,242.0
74.49,272.0
74.5,236.0
74.51,220.0
74.52,269.0
74.53,243.0
74.54,252.0
74.55,235.0
74.56,269.0
74.57,227.0
74.58,257.0
74.59,232.0
74.6,222.0
74.61,241.0
74.62,246.0
74.63,284.0
74.64,257.0
74.65,252.0
74.66,240.0
74.67,243.0
74.68,273.0
74.69,267.0
74.7,241.0
74.71,234.0
74.72,264.0
74.73,226.0
74.74,276.0
74.75,245.0
74.76,257.0
74.77,230.0
74.78,222.0
74.79,257.0
74.8,239.0
74.81,233.0
74.82,219.0
74.83,247.0
74.84,279.0
74.85,218.0
74.86,251.0
74.87,224.0
74.88,253.0
74.89,237.0
74.9,264.0
74.91,230.0
74.92,253.0
74.93,238.0
74.94,236.0
74.95,233.0
74.96,220.0
74.97,251.0
74.98,265.0
74.99,212.0
75.0,248.0
75.01,251.0
75.02,242.0
75.03,275.0
75.04,212.0
75.05,241.0
75.06,224.0
75.07,247.0
75.08,244.0
75.09,260.0
75.1,238.0
75.11,233.0
75.12,244.0
75.13,221.0
75.14,256.0
75.15,228.0
75.16,235.0
75.17,253.0
75.18,242.0
75.19,252.0
75.2,214.0
75.21,255.0
75.22,285.0
75.23,263.0
75.24,236.0
75.25,235.0
75.26,237.0
75.27,236.0
75.28,242.0
75.29,235.0
75.3,231.0
75.31,230.0
75.32,246.0
75.33,269.0
75.34,254.0
75.35,240.0
75.36,255.0
75.37,251.0
75.38,240.0
75.39,235.0
75.4,267.0
75.41,233.0
75.42,264.0
75.43,233.0
75.44,233.0
75.45,247.0
75.46,256.0
75.47,251.0
75.48,254.0
75.49,243.0
75.5,253.0
75.51,232.0
75.52,244.0
75.53,251.0
75.54,251.0
75.55,248.0
75.56,227.0
75.57,261.0
75.58,269.0
75.59,247.0
75.6,253.0
75.61,246.0
75.62,265.0
75.63,252.0
75.64,261.0
75.65,242.0
75.66,244.0
75.67,249.0
75.68,249.0
75.69,228.0
75.7,230.0
75.71,225.0
75.72,245.0
75.73,235.0
75.74,263.0
75.75,224.0
75.76,233.0
75.77,248.0
75.78,271.0
75.79,225.0
75.8,271.0
75.81,234.0
75.82,237.0
75.83,238.0
75.84,250.0
75.85,229.0
75.86,241.0
75.87,232.0
75.88,254.0
75.89,255.0
75.9,264.0
75.91,252.0
75.92,258.0
75.93,260.0
75.94,239.0
75.95,235.0
75.96,229.0
75.97,250.0
75.98,232.0
75.99,258.0
76.0,252.0
76.01,233.0
76.02,245.0
76.03,254.0
76.04,270.0
76.05,265.0
76.06,260.0
76.07,215.0
76.08,261.0
76.09,259.0
76.1,235.0
76.11,256.0
76.12,244.0
76.13,257.0
76.14,244.0
76.15,253.0
76.16,211.0
76.17,254.0
76.18,221.0
76.19,231.0
76.2,248.0
76.21,220.0
76.22,226.0
76.23,228.0
76.24,226.0
76.25,248.0
76.26,213.0
76.27,246.0
76.28,249.0
76.29,262.0
76.3,253.0
76.31,236.0
76.32,237.0
76.33,247.0
76.34,272.0
76.35,237.0
76.36,230.0
76.37,211.0
76.38,237.0
76.39,270.0
76.4,222.0
76.41,243.0
76.42,219.0
76.43,244.0
76.44,212.0
76.45,236.0
76.46,241.0
76.47,247.0
76.48,257.0
76.49,244.0
76.5,267.0
76.51,208.0
76.52,247.0
76.53,211.0
76.54,263.0
76.55,264.0
76.56,236.0
76.57,258.0
76.58,275.0
76.59,237.0
76.6,265.0
76.61,242.0
76.62,221.0
76.63,249.0
76.64,276.0
76.65,232.0
76.66,232.0
76.67,233.0
76.68,218.0
76.69,256.0
76.7,258.0
76.71,232.0
76.72,248.0
76.73,254.0
76.74,212.0
76.75,244.0
76.76,257.0
76.77,243.0
76.78,241.0
76.79,249.0
76.8,235.0
76.81,236.0
76.82,249.0
76.83,248.0
76.84,232.0
76.85,253.0
76.86,241.0
76.87,247.0
76.88,254.0
76.89,246.0
76.9,216.0
76.91,208.0
76.92,248.0
76.93,255.0
76.94,258.0
76.95,239.0
76.96,266.0
76.97,229.0
76.98,251.0
76.99,228.0
77.0,241.0
77.01,224.0
77.02,251.0
77.03,242.0
77.04,255.0
77.05,247.0
77.06,257.0
77.07,209.0
77.08,247.0
77.09,258.0
77.1,255.0
77.11,216.0
77.12,218.0
77.13,247.0
77.14,255.0
77.15,232.0
77.16,244.0
77.17,238.0
77.18,252.0
77.19,236.0
77.2,243.0
77.21,274.0
77.22,224.0
77.23,221.0
77.24,256.0
77.25,235.0
77.26,250.0
77.27,227.0
77.28,225.0
77.29,253.0
77.3,230.0
77.31,238.0
77.32,239.0
77.33,250.0
77.34,255.0
77.35,241.0
77.36,246.0
77.37,257.0
77.38,261.0
77.39,224.0
77.4,228.0
77.41,220.0
77.42,268.0
77.43,227.0
77.44,235.0
77.45,237.0
77.46,218.0
77.47,229.0
77.48,226.0
77.49,248.0
77.5,235.0
77.51,244.0
77.52,244.0
77.53,231.0
77.54,244.0
77.55,257.0
77.56,239.0
77.57,258.0
77.58,262.0
77.59,231.0
77.6,275.0
77.61,238.0
77.62,232.0
77.63,259.0
77.64,246.0
77.65,254.0
77.66,238.0
77.67,262.0
77.68,227.0
77.69,232.0
77.7,221.0
77.71,249.0
77.72,207.0
77.73,270.0
77.74,238.0
77.75,223.0
77.76,252.0
77.77,267.0
77.78,256.0
77.79,250.0
77.8,231.0
77.81,222.0
77.82,247.0
77.83,226.0
77.84,229.0
77.85,253.0
77.86,282.0
77.87,234.0
77.88,270.0
77.89,230.0
77.9,259.0
77.91,229.0
77.92,211.0
77.93,219.0
77.94,231.0
77.95,256.0
77.96,250.0
77.97,228.0
77.98,255.0
77.99,264.0
78.0,246.0
78.01,237.0
78.02,265.0
78.03,286.0
78.04,233.0
78.05,257.0
78.06,256.0
78.07,238.0
78.08,221.0
78.09,270.0
78.1,243.0
78.11,255.0
78.12,210.0
78.13,284.0
78.14,242.0
78.15,238.0
78.16,250.0
78.17,277.0
78.18,237.0
78.19,218.0
78.2,266.0
78.21,243.0
78.22,252.0
78.23,233.0
78.24,233.0
78.25,231.0
78.26,229.0
78.27,244.0
78.28,265.0
78.29,265.0
78.3,246.0
78.31,263.0
78.32,214.0
78.33,254.0
78.34,274.0
78.35,262.0
78.36,248.0
78.37,221.0
78.38,243.0
78.39,271.0
78.4,249.0
78.41,237.0
78.42,226.0
78.43,214.0
78.44,266.0
78.45,259.0
78.46,248.0
78.47,233.0
78.48,227.0
78.49,238.0
78.5,242.0
78.51,252.0
78.52,236.0
78.53,259.0
78.54,236.0
78.55,265.0
78.56,258.0
78.57,264.0
78.58,252.0
78.59,249.0
78.6,258.0
78.61,248.0
78.62,230.0
78.63,270.0
78.64,239.0
78.65,232.0
78.66,238.0
78.67,213.0
78.68,242.0
78.69,236.0
78.7,245.0
78.71,244.0
78.72,249.0
78.73,225.0
78.74,250.0
78.75,232.0
78.76,254.0
78.77,231.0
78.78,240.0
78.79,226.0
78.8,257.0
78.81,261.0
78.82,233.0
78.83,260.0
78.84,225.0
78.85,268.0
78.86,243.0
78.87,253.0
78.88,270.0
78.89,242.0
78.9,233.0
78.91,240.0
78.92,238.0
78.93,228.0
78.94,251.0
78.95,249.0
78.96,228.0
78.97,259.0
78.98,267.0
78.99,258.0
79.0,256.0
79.01,256.0
79.02,228.0
79.03,226.0
79.04,262.0
79.05,239.0
79.06,258.0
79.07,216.0
79.08,239.0
79.09,248.0
79.1,233.0
79.11,266.0
79.12,258.0
79.13,266.0
79.14,250.0
79.15,232.0
79.16,209.0
79.17,219.0
79.18,210.0
79.19,248.0
79.2,210.0
79.21,223.0
79.22,206.0
79.23,283.0
79.24,255.0
79.25,250.0
79.26,240.0
79.27,215.0
79.28,246.0
79.29,264.0
79.3,260.0
79.31,225.0
79.32,247.0
79.33,280.0
79.34,233.0
79.35,227.0
79.36,241.0
79.37,252.0
79.38,235.0
79.39,237.0
79.4,241.0
79.41,225.0
79.42,250.0
79.43,258.0
79.44,244.0
79.45,252.0
79.46,262.0
79.47,269.0
79.48,258.0
79.49,247.0
79.5,265.0
79.51,279.0
79.52,257.0
79.53,256.0
79.54,271.0
79.55,254.0
79.56,250.0
79.57,234.0
79.58,235.0
79.59,232.0
79.6,244.0
79.61,250.0
79.62,232.0
79.63,244.0
79.64,244.0
79.65,249.0
79.66,238.0
79.67,244.0
79.68,225.0
79.69,238.0
79.7,227.0
79.71,234.0
79.72,240.0
79.73,248.0
79.74,250.0
79.75,235.0
79.76,240.0
79.77,247.0
79.78,214.0
79.79,260.0
79.8,247.0
79.81,232.0
79.82,274.0
79.83,254.0
79.84,251.0
79.85,261.0
79.86,247.0
79.87,247.0
79.88,239.0
79.89,238.0
79.9,242.0
79.91,259.0
79.92,243.0
79.93,252.0
79.94,265.0
79.95,252.0
79.96,234.0
79.97,209.0
79.98,250.0
79.99,265.0
80.0,227.0
80.01,230.0
80.02,217.0
80.03,228.0
80.04,261.0
80.05,264.0
80.06,258.0
80.07,242.0
80.08,269.0
80.09,243.0
80.1,228.0
80.11,267.0
80.12,228.0
80.13,232.0
80.14,262.0
80.15,258.0
80.16,262.0
80.17,222.0
80.18,250.0
80.19,222.0
80.2,230.0
80.21,255.0
80.22,255.0
80.23,243.0
80.24,258.0
80.25,223.0
80.26,229.0
80.27,262.0
80.28,273.0
80.29,231.0
80.3,232.0
80.31,251.0
80.32,256.0
80.33,264.0
80.34,267.0
80.35,251.0
80.36,245.0
80.37,236.0
80.38,243.0
80.39,266.0
80.4,251.0
80.41,232.0
80.42,218.0
80.43,267.0
80.44,247.0
80.45,235.0
80.46,260.0
80.47,241.0
80.48,247.0
80.49,248.0
80.5,232.0
80.51,242.0
80.52,252.0
80.53,211.0
80.54,260.0
80.55,222.0
80.56,242.0
80.57,282.0
80.58,262.0
80.59,259.0
80.6,268.0
80.61,219.0
80.62,255.0
80.63,242.0
80.64,258.0
80.65,237.0
80.66,285.0
80.67,231.0
80.68,258.0
80.69,292.0
80.7,258.0
80.71,222.0
80.72,226.0
80.73,227.0
80.74,233.0
80.75,232.0
80.76,244.0
80.77,235.0
80.78,240.0
80.79,203.0
80.8,231.0
80.81,273.0
80.82,243.0
80.83,250.0
80.84,240.0
80.85,245.0
80.86,249.0
80.87,281.0
80.88,237.0
80.89,272.0
80.9,232.0
80.91,233.0
80.92,232.0
80.93,244.0
80.94,221.0
80.95,254.0
80.96,229.0
80.97,259.0
80.98,245.0
80.99,237.0
81.0,221.0
81.01,253.0
81.02,250.0
81.03,237.0
81.04,228.0
81.05,246.0
81.06,230.0
81.07,275.0
81.08,222.0
81.09,228.0
81.1,237.0
81.11,227.0
81.12,255.0
81.13,238.0
81.14,240.0
81.15,234.0
81.16,260.0
81.17,231.0
81.18,222.0
81.19,245.0
81.2,229.0
81.21,244.0
81.22,229.0
81.23,242.0
81.24,240.0
81.25,276.0
81.26,248.0
81.27,210.0
81.28,252.0
81.29,234.0
81.3,249.0
81.31,254.0
81.32,232.0
81.33,236.0
81.34,243.0
81.35,271.0
81.36,253.0
81.37,246.0
81.38,238.0
81.39,270.0
81.4,281.0
81.41,253.0
81.42,220.0
81.43,224.0
81.44,227.0
81.45,233.0
81.46,235.0
81.47,254.0
81.48,223.0
81.49,257.0
81.5,238.0
81.51,228.0
81.52,233.0
81.53,239.0
81.54,257.0
81.55,256.0
81.56,246.0
81.57,262.0
81.58,256.0
81.59,226.0
81.6,229.0
81.61,256.0
81.62,234.0
81.63,226.0
81.64,247.0
81.65,247.0
81.66,194.0
81.67,247.0
81.68,253.0
81.69,265.0
81.7,245.0
81.71,212.0
81.72,244.0
81.73,232.0
81.74,248.0
81.75,247.0
81.76,249.0
81.77,238.0
81.78,269.0
81.79,244.0
81.8,248.0
81.81,238.0
81.82,259.0
81.83,259.0
81.84,244.0
81.85,214.0
81.86,242.0
81.87,258.0
81.88,258.0
81.89,233.0
81.9,211.0
81.91,258.0
81.92,257.0
81.93,243.0
81.94,236.0
81.95,239.0
81.96,243.0
81.97,254.0
81.98,242.0
81.99,232.0
82.0,243.0
82.01,241.0
82.02,245.0
82.03,236.0
82.04,242.0
82.05,248.0
82.06,262.0
82.07,257.0
82.08,230.0
82.09,261.0
82.1,253.0
82.11,262.0
82.12,252.0
82.13,262.0
82.14,248.0
82.15,273.0
82.16,250.0
82.17,244.0
82.18,252.0
82.19,223.0
82.2,253.0
82.21,218.0
82.22,257.0
82.23,254.0
82.24,261.0
82.25,276.0
82.26,226.0
82.27,236.0
82.28,253.0
82.29,226.0
82.3,251.0
82.31,216.0
82.32,223.0
82.33,222.0
82.34,236.0
82.35,259.0
82.36,263.0
82.37,250.0
82.38,250.0
82.39,305.0
82.4,249.0
82.41,226.0
82.42,230.0
82.43,217.0
82.44,244.0
82.45,234.0
82.46,239.0
82.47,233.0
82.48,279.0
82.49,222.0
82.5,265.0
82.51,232.0
82.52,258.0
82.53,225.0
82.54,235.0
82.55,255.0
82.56,272.0
82.57,261.0
82.58,236.0
82.59,236.0
82.6,214.0
82.61,275.0
82.62,267.0
82.63,275.0
82.64,234.0
82.65,251.0
82.66,276.0
82.67,257.0
82.68,230.0
82.69,263.0
82.7,226.0
82.71,260.0
82.72,233.0
82.73,233.0
82.74,250.0
82.75,250.0
82.76,242.0
82.77,253.0
82.78,266.0
82.79,259.0
82.8,235.0
82.81,260.0
82.82,265.0
82.83,268.0
82.84,268.0
82.85,232.0
82.86,240.0
82.87,251.0
82.88,253.0
82.89,262.0
82.9,249.0
82.91,243.0
82.92,231.0
82.93,257.0
82.94,229.0
82.95,268.0
82.96,242.0
82.97,246.0
82.98,258.0
82.99,255.0
83.0,250.0
83.01,242.0
83.02,265.0
83.03,265.0
83.04,246.0
83.05,247.0
83.06,267.0
83.07,240.0
83.08,235.0
83.09,257.0
83.1,262.0
83.11,283.0
83.12,230.0
83.13,235.0
83.14,267.0
83.15,243.0
83.16,241.0
83.17,241.0
83.18,234.0
83.19,253.0
83.2,264.0
83.21,231.0
83.22,233.0
83.23,248.0
83.24,260.0
83.25,258.0
83.26,274.0
83.27,263.0
83.28,267.0
83.29,258.0
83.3,218.0
83.31,236.0
83.32,248.0
83.33,257.0
83.34,237.0
83.35,227.0
83.36,207.0
83.37,242.0
83.38,267.0
83.39,235.0
83.4,224.0
83.41,235.0
83.42,242.0
83.43,250.0
83.44,249.0
83.45,233.0
83.46,258.0
83.47,246.0
83.48,276.0
83.49,259.0
83.5,235.0
83.51,253.0
83.52,247.0
83.53,244.0
83.54,233.0
83.55,225.0
83.56,214.0
83.57,258.0
83.58,245.0
83.59,234.0
83.6,243.0
83.61,205.0
83.62,247.0
83.63,237.0
83.64,241.0
83.65,239.0
83.66,258.0
83.67,275.0
83.68,246.0
83.69,254.0
83.7,256.0
83.71,261.0
83.72,237.0
83.73,251.0
83.74,233.0
83.75,250.0
83.76,226.0
83.77,256.0
83.78,256.0
83.79,242.0
83.8,244.0
83.81,259.0
83.82,251.0
83.83,264.0
83.84,258.0
83.85,237.0
83.86,205.0
83.87,255.0
83.88,235.0
83.89,231.0
83.9,248.0
83.91,241.0
83.92,249.0
83.93,247.0
83.94,210.0
83.95,273.0
83.96,250.0
83.97,249.0
83.98,247.0
83.99,231.0
84.0,203.0
84.01,246.0
84.02,239.0
84.03,211.0
84.04,268.0
84.05,256.0
84.06,237.0
84.07,251.0
84.08,229.0
84.09,250.0
84.1,226.0
84.11,249.0
84.12,249.0
84.13,229.0
84.14,258.0
84.15,239.0
84.16,213.0
84.17,250.0
84.18,239.0
84.19,241.0
84.2,236.0
84.21,296.0
84.22,253.0
84.23,234.0
84.24,243.0
84.25,233.0
84.26,242.0
84.27,235.0
84.28,255.0
84.29,248.0
84.3,262.0
84.31,249.0
84.32,244.0
84.33,261.0
84.34,225.0
84.35,249.0
84.36,227.0
84.37,248.0
84.38,253.0
84.39,256.0
84.4,259.0
84.41,242.0
84.42,281.0
84.43,232.0
84.44,245.0
84.45,242.0
84.46,245.0
84.47,233.0
84.48,247.0
84.49,253.0
84.5,227.0
84.51,266.0
84.52,214.0
84.53,266.0
84.54,235.0
84.55,268.0
84.56,220.0
84.57,272.0
84.58,249.0
84.59,224.0
84.6,219.0
84.61,237.0
84.62,249.0
84.63,243.0
84.64,243.0
84.65,256.0
84.66,256.0
84.67,249.0
84.68,265.0
84.69,249.0
84.7,257.0
84.71,246.0
84.72,268.0
84.73,264.0
84.74,235.0
84.75,232.0
84.76,263.0
84.77,221.0
84.78,224.0
84.79,257.0
84.8,248.0
84.81,229.0
84.82,247.0
84.83,240.0
84.84,261.0
84.85,248.0
84.86,231.0
84.87,257.0
84.88,253.0
84.89,243.0
84.9,268.0
84.91,232.0
84.92,241.0
84.93,253.0
84.94,268.0
84.95,245.0
84.96,234.0
84.97,267.0
84.98,273.0
84.99,279.0
85.0,246.0
85.01,241.0
85.02,243.0
85.03,257.0
85.04,241.0
85.05,225.0
85.06,263.0
85.07,249.0
85.08,249.0
85.09,241.0
85.1,255.0
85.11,235.0
85.12,238.0
85.13,223.0
85.14,229.0
85.15,226.0
85.16,252.0
85.17,266.0
85.18,274.0
85.19,240.0
85.2,254.0
85.21,241.0
85.22,244.0
85.23,250.0
85.24,243.0
85.25,242.0
85.26,225.0
85.27,261.0
85.28,237.0
85.29,248.0
85.3,246.0
85.31,264.0
85.32,248.0
85.33,276.0
85.34,270.0
85.35,248.0
85.36,239.0
85.37,263.0
85.38,269.0
85.39,214.0
85.4,268.0
85.41,274.0
85.42,221.0
85.43,228.0
85.44,241.0
85.45,250.0
85.46,241.0
85.47,257.0
85.48,256.0
85.49,244.0
85.5,234.0
85.51,271.0
85.52,273.0
85.53,243.0
85.54,261.0
85.55,222.0
85.56,236.0
85.57,228.0
85.58,230.0
85.59,250.0
85.6,202.0
85.61,258.0
85.62,265.0
85.63,252.0
85.64,241.0
85.65,261.0
85.66,248.0
85.67,251.0
85.68,251.0
85.69,240.0
85.7,246.0
85.71,263.0
85.72,253.0
85.73,255.0
85.74,232.0
85.75,251.0
85.76,262.0
85.77,250.0
85.78,245.0
85.79,238.0
85.8,263.0
85.81,233.0
85.82,255.0
85.83,243.0
85.84,237.0
85.85,232.0
85.86,231.0
85.87,253.0
85.88,249.0
85.89,215.0
85.9,268.0
85.91,244.0
85.92,270.0
85.93,223.0
85.94,253.0
85.95,253.0
85.96,257.0
85.97,234.0
85.98,243.0
85.99,252.0
86.0,252.0
86.01,242.0
86.02,242.0
86.03,239.0
86.04,231.0
86.05,231.0
86.06,255.0
86.07,248.0
86.08,258.0
86.09,258.0
86.1,258.0
86.11,271.0
86.12,245.0
86.13,251.0
86.14,241.0
86.15,238.0
86.16,229.0
86.17,236.0
86.18,264.0
86.19,229.0
86.2,238.0
86.21,250.0
86.22,270.0
86.23,256.0
86.24,225.0
86.25,247.0
86.26,231.0
86.27,236.0
86.28,227.0
86.29,248.0
86.3,259.0
86.31,237.0
86.32,270.0
86.33,235.0
86.34,246.0
86.35,240.0
86.36,236.0
86.37,243.0
86.38,252.0
86.39,256.0
86.4,237.0
86.41,243.0
86.42,252.0
86.43,252.0
86.44,249.0
86.45,265.0
86.46,244.0
86.47,249.0
86.48,229.0
86.49,255.0
86.5,252.0
86.51,273.0
86.52,216.0
86.53,264.0
86.54,250.0
86.55,220.0
86.56,252.0
86.57,248.0
86.58,235.0
86.59,259.0
86.6,260.0
86.61,254.0
86.62,234.0
86.63,237.0
86.64,262.0
86.65,236.0
86.66,258.0
86.67,248.0
86.68,282.0
86.69,225.0
86.7,246.0
86.71,252.0
86.72,248.0
86.73,223.0
86.74,252.0
86.75,226.0
86.76,233.0
86.77,247.0
86.78,248.0
86.79,251.0
86.8,239.0
86.81,248.0
86.82,267.0
86.83,242.0
86.84,231.0
86.85,239.0
86.86,238.0
86.87,250.0
86.88,248.0
86.89,235.0
86.9,231.0
86.91,265.0
86.92,274.0
86.93,231.0
86.94,240.0
86.95,253.0
86.96,272.0
86.97,249.0
86.98,238.0
86.99,274.0
87.0,248.0
87.01,271.0
87.02,260.0
87.03,276.0
87.04,261.0
87.05,270.0
87.06,245.0
87.07,232.0
87.08,229.0
87.09,254.0
87.1,270.0
87.11,230.0
87.12,242.0
87.13,240.0
87.14,235.0
87.15,267.0
87.16,265.0
87.17,234.0
87.18,228.0
87.19,256.0
87.2,229.0
87.21,237.0
87.22,230.0
87.23,244.0
87.24,272.0
87.25,244.0
87.26,243.0
87.27,268.0
87.28,269.0
87.29,247.0
87.3,232.0
87.31,257.0
87.32,255.0
87.33,258.0
87.34,279.0
87.35,231.0
87.36,248.0
87.37,270.0
87.38,228.0
87.39,239.0
87.4,233.0
87.41,243.0
87.42,261.0
87.43,230.0
87.44,244.0
87.45,258.0
87.46,228.0
87.47,219.0
87.48,269.0
87.49,261.0
87.5,255.0
87.51,251.0
87.52,241.0
87.53,246.0
87.54,226.0
87.55,260.0
87.56,252.0
87.57,268.0
87.58,228.0
87.59,263.0
87.6,223.0
87.61,220.0
87.62,234.0
87.63,239.0
87.64,261.0
87.65,257.0
87.66,252.0
87.67,247.0
87.68,269.0
87.69,244.0
87.7,227.0
87.71,256.0
87.72,249.0
87.73,299.0
87.74,230.0
87.75,259.0
87.76,257.0
87.77,273.0
87.78,244.0
87.79,236.0
87.8,241.0
87.81,244.0
87.82,242.0
87.83,247.0
87.84,236.0
87.85,289.0
87.86,258.0
87.87,250.0
87.88,253.0
87.89,257.0
87.9,277.0
87.91,242.0
87.92,221.0
87.93,224.0
87.94,292.0
87.95,253.0
87.96,277.0
87.97,250.0
87.98,266.0
87.99,245.0
88.0,239.0
88.01,277.0
88.02,225.0
88.03,248.0
88.04,228.0
88.05,243.0
88.06,234.0
88.07,245.0
88.08,241.0
88.09,262.0
88.1,255.0
88.11,247.0
88.12,207.0
88.13,254.0
88.14,224.0
88.15,223.0
88.16,229.0
88.17,285.0
88.18,234.0
88.19,235.0
88.2,216.0
88.21,260.0
88.22,276.0
88.23,242.0
88.24,256.0
88.25,251.0
88.26,261.0
88.27,271.0
88.28,239.0
88.29,264.0
88.3,259.0
88.31,240.0
88.32,281.0
88.33,259.0
88.34,264.0
88.35,255.0
88.36,227.0
88.37,239.0
88.38,261.0
88.39,264.0
88.4,264.0
88.41,237.0
88.42,238.0
88.43,239.0
88.44,244.0
88.45,267.0
88.46,258.0
88.47,255.0
88.48,251.0
88.49,236.0
88.5,228.0
88.51,245.0
88.52,254.0
88.53,268.0
88.54,260.0
88.55,248.0
88.56,257.0
88.57,242.0
88.58,259.0
88.59,268.0
88.6,248.0
88.61,253.0
88.62,252.0
88.63,266.0
88.64,255.0
88.65,234.0
88.66,260.0
88.67,248.0
88.68,277.0
88.69,233.0
88.7,252.0
88.71,267.0
88.72,264.0
88.73,240.0
88.74,227.0
88.75,236.0
88.76,252.0
88.77,256.0
88.78,238.0
88.79,230.0
88.8,243.0
88.81,221.0
88.82,260.0
88.83,234.0
88.84,231.0
88.85,244.0
88.86,248.0
88.87,233.0
88.88,265.0
88.89,245.0
88.9,264.0
88.91,242.0
88.92,238.0
88.93,261.0
88.94,230.0
88.95,257.0
88.96,231.0
88.97,266.0
88.98,249.0
88.99,299.0
89.0,221.0
89.01,269.0
89.02,229.0
89.03,246.0
89.04,256.0
89.05,232.0
89.06,246.0
89.07,266.0
89.08,229.0
89.09,235.0
89.1,260.0
89.11,262.0
89.12,245.0
89.13,223.0
89.14,280.0
89.15,251.0
89.16,245.0
89.17,261.0
89.18,250.0
89.19,219.0
89.2,233.0
89.21,247.0
89.22,234.0
89.23,242.0
89.24,240.0
89.25,246.0
89.26,241.0
89.27,287.0
89.28,252.0
89.29,248.0
89.3,263.0
89.31,223.0
89.32,265.0
89.33,237.0
89.34,248.0
89.35,262.0
89.36,248.0
89.37,264.0
89.38,251.0
89.39,248.0
89.4,243.0
89.41,235.0
89.42,236.0
89.43,231.0
89.44,269.0
89.45,267.0
89.46,241.0
89.47,264.0
89.48,269.0
89.49,265.0
89.5,250.0
89.51,253.0
89.52,294.0
89.53,220.0
89.54,285.0
89.55,247.0
89.56,238.0
89.57,237.0
89.58,259.0
89.59,262.0
89.6,235.0
89.61,249.0
89.62,227.0
89.63,286.0
89.64,243.0
89.65,267.0
89.66,268.0
89.67,239.0
89.68,252.0
89.69,236.0
89.7,225.0
89.71,224.0
89.72,255.0
89.73,255.0
89.74,230.0
89.75,247.0
89.76,234.0
89.77,261.0
89.78,238.0
89.79,259.0
89.8,231.0
89.81,262.0
89.82,227.0
89.83,244.0
89.84,232.0
89.85,241.0
89.86,239.0
89.87,246.0
89.88,227.0
89.89,264.0
89.9,222.0
89.91,264.0
89.92,253.0
89.93,243.0
89.94,266.0
89.95,276.0
89.96,244.0
89.97,275.0
89.98,254.0
89.99,263.0
90.0,239.0
