angle,intensity
5.0,106.0
5.01,101.0
5.02,103.0
5.03,101.0
5.04,114.0
5.05,108.0
5.06,115.0
5.07,104.0
5.08,94.0
5.09,113.0
5.1,113.0
5.11,123.0
5.12,110.0
5.13,129.0
5.14,119.0
5.15,114.0
5.16,121.0
5.17,89.0
5.18,118.0
5.19,105.0
5.2,119.0
5.21,99.0
5.22,93.0
5.23,110.0
5.24,123.0
5.25,127.0
5.26,106.0
5.27,110.0
5.28,127.0
5.29,99.0
5.3,112.0
5.31,109.0
5.32,117.0
5.33,98.0
5.34,107.0
5.35,105.0
5.36,125.0
5.37,103.0
5.38,105.0
5.39,101.0
5.4,120.0
5.41,128.0
5.42,119.0
5.43,123.0
5.44,118.0
5.45,108.0
5.46,123.0
5.47,92.0
5.48,111.0
5.49,127.0
5.5,102.0
5.51,120.0
5.52,134.0
5.53,106.0
5.54,125.0
5.55,137.0
5.56,110.0
5.57,105.0
5.58,96.0
5.59,94.0
5.6,91.0
5.61,136.0
5.62,104.0
5.63,115.0
5.64,122.0
5.65,123.0
5.66,105.0
5.67,127.0
5.68,106.0
5.69,128.0
5.7,107.0
5.71,110.0
5.72,121.0
5.73,112.0
5.74,120.0
5.75,123.0
5.76,126.0
5.77,105.0
5.78,120.0
5.79,123.0
5.8,108.0
5.81,125.0
5.82,122.0
5.83,118.0
5.84,113.0
5.85,134.0
5.86,103.0
5.87,122.0
5.88,102.0
5.89,108.0
5.9,115.0
5.91,117.0
5.92,129.0
5.93,138.0
5.94,111.0
5.95,110.0
5.96,114.0
5.97,130.0
5.98,128.0
5.99,123.0
6.0,122.0
6.01,103.0
6.02,119.0
6.03,114.0
6.04,128.0
6.05,124.0
6.06,127.0
6.07,125.0
6.08,117.0
6.09,119.0
6.1,123.0
6.11,115.0
6.12,109.0
6.13,134.0
6.14,122.0
6.15,149.0
6.16,115.0
6.17,124.0
6.18,130.0
6.19,121.0
6.2,121.0
6.21,120.0
6.22,136.0
6.23,118.0
6.24,102.0
6.25,114.0
6.26,113.0
6.27,109.0
6.28,117.0
6.29,128.0
6.3,106.0
6.31,148.0
6.32,159.0
6.33,132.0
6.34,133.0
6.35,129.0
6.36,126.0
6.37,100.0
6.38,134.0
6.39,104.0
6.4,132.0
6.41,119.0
6.42,113.0
6.43,117.0
6.44,141.0
6.45,110.0
6.46,112.0
6.47,134.0
6.48,112.0
6.49,139.0
6.5,137.0
6.51,119.0
6.52,129.0
6.53,129.0
6.54,113.0
6.55,121.0
6.56,121.0
6.57,115.0
6.58,106.0
6.59,109.0
6.6,117.0
6.61,131.0
6.62,132.0
6.63,145.0
6.64,113.0
6.65,135.0
6.66,121.0
6.67,136.0
6.68,117.0
6.69,125.0
6.7,128.0
6.71,133.0
6.72,140.0
6.73,132.0
6.74,156.0
6.75,128.0
6.76,145.0
6.77,123.0
6.78,128.0
6.79,143.0
6.8,139.0
6.81,133.0
6.82,127.0
6.83,109.0
6.84,120.0
6.85,123.0
6.86,136.0
6.87,119.0
6.88,142.0
6.89,135.0
6.9,141.0
6.91,125.0
6.92,156.0
6.93,125.0
6.94,130.0
6.95,126.0
6.96,145.0
6.97,117.0
6.98,123.0
6.99,133.0
7.0,127.0
7.01,147.0
7.02,142.0
7.03,138.0
7.04,121.0
7.05,154.0
7.06,132.0
7.07,141.0
7.08,118.0
7.09,146.0
7.1,114.0
7.11,142.0
7.12,141.0
7.13,147.0
7.14,129.0
7.15,140.0
7.16,126.0
7.17,143.0
7.18,138.0
7.19,143.0
7.2,151.0
7.21,126.0
7.22,129.0
7.23,128.0
7.24,142.0
7.25,151.0
7.26,134.0
7.27,151.0
7.28,161.0
7.29,119.0
7.3,127.0
7.31,154.0
7.32,131.0
7.33,113.0
7.34,155.0
7.35,133.0
7.36,165.0
7.37,134.0
7.38,147.0
7.39,153.0
7.4,134.0
7.41,160.0
7.42,150.0
7.43,137.0
7.44,139.0
7.45,144.0
7.46,138.0
7.47,140.0
7.48,136.0
7.49,138.0
7.5,160.0
7.51,154.0
7.52,159.0
7.53,150.0
7.54,156.0
7.55,149.0
7.56,138.0
7.57,146.0
7.58,145.0
7.59,141.0
7.6,128.0
7.61,137.0
7.62,121.0
7.63,134.0
7.64,157.0
7.65,157.0
7.66,136.0
7.67,149.0
7.68,163.0
7.69,137.0
7.7,140.0
7.71,141.0
7.72,155.0
7.73,152.0
7.74,133.0
7.75,154.0
7.76,145.0
7.77,147.0
7.78,170.0
7.79,140.0
7.8,136.0
7.81,135.0
7.82,138.0
7.83,165.0
7.84,136.0
7.85,147.0
7.86,139.0
7.87,144.0
7.88,147.0
7.89,153.0
7.9,165.0
7.91,148.0
7.92,164.0
7.93,138.0
7.94,161.0
7.95,140.0
7.96,144.0
7.97,149.0
7.98,147.0
7.99,151.0
8.0,146.0
8.01,142.0
8.02,127.0
8.03,133.0
8.04,156.0
8.05,161.0
8.06,160.0
8.07,142.0
8.08,157.0
8.09,154.0
8.1,133.0
8.11,132.0
8.12,155.0
8.13,157.0
8.14,141.0
8.15,153.0
8.16,170.0
8.17,141.0
8.18,159.0
8.19,127.0
8.2,150.0
8.21,153.0
8.22,141.0
8.23,142.0
8.24,130.0
8.25,153.0
8.26,153.0
8.27,171.0
8.28,170.0
8.29,161.0
8.3,150.0
8.31,142.0
8.32,154.0
8.33,163.0
8.34,138.0
8.35,169.0
8.36,135.0
8.37,159.0
8.38,150.0
8.39,145.0
8.4,139.0
8.41,150.0
8.42,137.0
8.43,130.0
8.44,158.0
8.45,153.0
8.46,143.0
8.47,155.0
8.48,144.0
8.49,144.0
8.5,130.0
8.51,136.0
8.52,137.0
8.53,134.0
8.54,141.0
8.55,121.0
8.56,149.0
8.57,129.0
8.58,156.0
8.59,133.0
8.6,137.0
8.61,142.0
8.62,138.0
8.63,136.0
8.64,135.0
8.65,151.0
8.66,149.0
8.67,134.0
8.68,137.0
8.69,138.0
8.7,155.0
8.71,147.0
8.72,139.0
8.73,149.0
8.74,149.0
8.75,162.0
8.76,147.0
8.77,140.0
8.78,132.0
8.79,149.0
8.8,141.0
8.81,140.0
8.82,135.0
8.83,136.0
8.84,137.0
8.85,149.0
8.86,157.0
8.87,155.0
8.88,144.0
8.89,147.0
8.9,146.0
8.91,140.0
8.92,140.0
8.93,144.0
8.94,141.0
8.95,165.0
8.96,132.0
8.97,153.0
8.98,165.0
8.99,158.0
9.0,165.0
9.01,145.0
9.02,161.0
9.03,163.0
9.04,141.0
9.05,146.0
9.06,132.0
9.07,125.0
9.08,128.0
9.09,167.0
9.1,125.0
9.11,144.0
9.12,143.0
9.13,136.0
9.14,147.0
9.15,121.0
9.16,142.0
9.17,157.0
9.18,174.0
9.19,143.0
9.2,154.0
9.21,126.0
9.22,153.0
9.23,140.0
9.24,147.0
9.25,151.0
9.26,167.0
9.27,150.0
9.28,151.0
9.29,158.0
9.3,166.0
9.31,148.0
9.32,128.0
9.33,155.0
9.34,134.0
9.35,132.0
9.36,147.0
9.37,140.0
9.38,145.0
9.39,147.0
9.4,155.0
9.41,137.0
9.42,172.0
9.43,137.0
9.44,174.0
9.45,138.0
9.46,136.0
9.47,148.0
9.48,175.0
9.49,138.0
9.5,149.0
9.51,153.0
9.52,138.0
9.53,143.0
9.54,140.0
9.55,146.0
9.56,143.0
9.57,133.0
9.58,155.0
9.59,142.0
9.6,158.0
9.61,135.0
9.62,143.0
9.63,152.0
9.64,148.0
9.65,165.0
9.66,144.0
9.67,155.0
9.68,161.0
9.69,159.0
9.7,145.0
9.71,170.0
9.72,148.0
9.73,160.0
9.74,168.0
9.75,151.0
9.76,133.0
9.77,164.0
9.78,133.0
9.79,152.0
9.8,157.0
9.81,133.0
9.82,160.0
9.83,144.0
9.84,146.0
9.85,145.0
9.86,139.0
9.87,142.0
9.88,142.0
9.89,167.0
9.9,161.0
9.91,136.0
9.92,132.0
9.93,187.0
9.94,135.0
9.95,160.0
9.96,157.0
9.97,142.0
9.98,151.0
9.99,152.0
10.0,123.0
10.01,134.0
10.02,123.0
10.03,129.0
10.04,150.0
10.05,175.0
10.06,138.0
10.07,138.0
10.08,147.0
10.09,146.0
10.1,140.0
10.11,161.0
10.12,157.0
10.13,153.0
10.14,150.0
10.15,148.0
10.16,159.0
10.17,132.0
10.18,151.0
10.19,145.0
10.2,153.0
10.21,124.0
10.22,140.0
10.23,152.0
10.24,189.0
10.25,148.0
10.26,150.0
10.27,138.0
10.28,136.0
10.29,145.0
10.3,139.0
10.31,147.0
10.32,140.0
10.33,145.0
10.34,151.0
10.35,162.0
10.36,154.0
10.37,157.0
10.38,156.0
10.39,147.0
10.4,153.0
10.41,154.0
10.42,156.0
10.43,148.0
10.44,166.0
10.45,173.0
10.46,137.0
10.47,157.0
10.48,169.0
10.49,157.0
10.5,166.0
10.51,150.0
10.52,150.0
10.53,167.0
10.54,153.0
10.55,180.0
10.56,154.0
10.57,160.0
10.58,125.0
10.59,161.0
10.6,161.0
10.61,148.0
10.62,176.0
10.63,161.0
10.64,141.0
10.65,142.0
10.66,134.0
10.67,161.0
10.68,122.0
10.69,147.0
10.7,148.0
10.71,151.0
10.72,163.0
10.73,160.0
10.74,172.0
10.75,137.0
10.76,155.0
10.77,164.0
10.78,150.0
10.79,147.0
10.8,142.0
10.81,157.0
10.82,152.0
10.83,125.0
10.84,155.0
10.85,138.0
10.86,169.0
10.87,168.0
10.88,148.0
10.89,160.0
10.9,144.0
10.91,151.0
10.92,161.0
10.93,163.0
10.94,150.0
10.95,137.0
10.96,135.0
10.97,142.0
10.98,147.0
10.99,147.0
11.0,151.0
11.01,153.0
11.02,140.0
11.03,131.0
11.04,146.0
11.05,153.0
11.06,163.0
11.07,175.0
11.08,151.0
11.09,171.0
11.1,170.0
11.11,163.0
11.12,149.0
11.13,155.0
11.14,152.0
11.15,147.0
11.16,147.0
11.17,155.0
11.18,150.0
11.19,146.0
11.2,152.0
11.21,178.0
11.22,131.0
11.23,153.0
11.24,146.0
11.25,145.0
11.26,141.0
11.27,180.0
11.28,166.0
11.29,156.0
11.3,135.0
11.31,160.0
11.32,159.0
11.33,176.0
11.34,153.0
11.35,154.0
11.36,169.0
11.37,168.0
11.38,135.0
11.39,142.0
11.4,131.0
11.41,170.0
11.42,144.0
11.43,161.0
11.44,174.0
11.45,140.0
11.46,148.0
11.47,157.0
11.48,143.0
11.49,144.0
11.5,166.0
11.51,159.0
11.52,153.0
11.53,170.0
11.54,132.0
11.55,155.0
11.56,139.0
11.57,170.0
11.58,148.0
11.59,173.0
11.6,149.0
11.61,148.0
11.62,166.0
11.63,145.0
11.64,157.0
11.65,163.0
11.66,181.0
11.67,131.0
11.68,157.0
11.69,145.0
11.7,157.0
11.71,128.0
11.72,131.0
11.73,145.0
11.74,180.0
11.75,163.0
11.76,156.0
11.77,153.0
11.78,165.0
11.79,177.0
11.8,179.0
11.81,127.0
11.82,136.0
11.83,175.0
11.84,147.0
11.85,163.0
11.86,156.0
11.87,162.0
11.88,162.0
11.89,169.0
11.9,176.0
11.91,157.0
11.92,172.0
11.93,185.0
11.94,165.0
11.95,164.0
11.96,154.0
11.97,139.0
11.98,175.0
11.99,175.0
12.0,146.0
12.01,151.0
12.02,165.0
12.03,156.0
12.04,172.0
12.05,166.0
12.06,142.0
12.07,154.0
12.08,175.0
12.09,167.0
12.1,161.0
12.11,169.0
12.12,162.0
12.13,179.0
12.14,138.0
12.15,150.0
12.16,141.0
12.17,174.0
12.18,172.0
12.19,164.0
12.2,148.0
12.21,173.0
12.22,175.0
12.23,163.0
12.24,153.0
12.25,166.0
12.26,158.0
12.27,176.0
12.28,159.0
12.29,150.0
12.3,174.0
12.31,153.0
12.32,153.0
12.33,162.0
12.34,170.0
12.35,160.0
12.36,155.0
12.37,162.0
12.38,166.0
12.39,158.0
12.4,164.0
12.41,161.0
12.42,180.0
12.43,171.0
12.44,155.0
12.45,191.0
12.46,171.0
12.47,163.0
12.48,171.0
12.49,172.0
12.5,167.0
12.51,162.0
12.52,156.0
12.53,177.0
12.54,151.0
12.55,186.0
12.56,163.0
12.57,174.0
12.58,161.0
12.59,160.0
12.6,173.0
12.61,162.0
12.62,160.0
12.63,165.0
12.64,160.0
12.65,213.0
12.66,170.0
12.67,160.0
12.68,145.0
12.69,170.0
12.7,156.0
12.71,167.0
12.72,180.0
12.73,182.0
12.74,156.0
12.75,183.0
12.76,159.0
12.77,168.0
12.78,155.0
12.79,172.0
12.8,162.0
12.81,144.0
12.82,174.0
12.83,165.0
12.84,169.0
12.85,159.0
12.86,193.0
12.87,189.0
12.88,178.0
12.89,171.0
12.9,148.0
12.91,160.0
12.92,196.0
12.93,140.0
12.94,183.0
12.95,173.0
12.96,179.0
12.97,167.0
12.98,173.0
12.99,169.0
13.0,178.0
13.01,189.0
13.02,176.0
13.03,157.0
13.04,185.0
13.05,182.0
13.06,171.0
13.07,146.0
13.08,155.0
13.09,160.0
13.1,158.0
13.11,156.0
13.12,169.0
13.13,174.0
13.14,176.0
13.15,158.0
13.16,171.0
13.17,150.0
13.18,167.0
13.19,178.0
13.2,153.0
13.21,164.0
13.22,185.0
13.23,170.0
13.24,173.0
13.25,166.0
13.26,173.0
13.27,164.0
13.28,158.0
13.29,177.0
13.3,151.0
13.31,147.0
13.32,175.0
13.33,159.0
13.34,172.0
13.35,179.0
13.36,174.0
13.37,160.0
13.38,173.0
13.39,154.0
13.4,171.0
13.41,143.0
13.42,159.0
13.43,182.0
13.44,152.0
13.45,164.0
13.46,138.0
13.47,166.0
13.48,165.0
13.49,181.0
13.5,178.0
13.51,150.0
13.52,167.0
13.53,164.0
13.54,166.0
13.55,138.0
13.56,158.0
13.57,170.0
13.58,160.0
13.59,158.0
13.6,162.0
13.61,175.0
13.62,163.0
13.63,176.0
13.64,159.0
13.65,182.0
13.66,153.0
13.67,148.0
13.68,149.0
13.69,168.0
13.7,189.0
13.71,161.0
13.72,159.0
13.73,169.0
13.74,155.0
13.75,169.0
13.76,147.0
13.77,173.0
13.78,159.0
13.79,186.0
13.8,180.0
13.81,140.0
13.82,182.0
13.83,168.0
13.84,175.0
13.85,164.0
13.86,156.0
13.87,145.0
13.88,153.0
13.89,189.0
13.9,159.0
13.91,181.0
13.92,158.0
13.93,149.0
13.94,165.0
13.95,177.0
13.96,192.0
13.97,194.0
13.98,157.0
13.99,160.0
14.0,169.0
14.01,177.0
14.02,163.0
14.03,171.0
14.04,174.0
14.05,164.0
14.06,152.0
14.07,148.0
14.08,165.0
14.09,158.0
14.1,166.0
14.11,173.0
14.12,170.0
14.13,181.0
14.14,162.0
14.15,169.0
14.16,150.0
14.17,153.0
14.18,167.0
14.19,165.0
14.2,182.0
14.21,206.0
14.22,172.0
14.23,171.0
14.24,164.0
14.25,167.0
14.26,156.0
14.27,185.0
14.28,157.0
14.29,160.0
14.3,186.0
14.31,171.0
14.32,182.0
14.33,168.0
14.34,201.0
14.35,141.0
14.36,171.0
14.37,167.0
14.38,166.0
14.39,146.0
14.4,178.0
14.41,176.0
14.42,176.0
14.43,166.0
14.44,187.0
14.45,165.0
14.46,181.0
14.47,160.0
14.48,171.0
14.49,160.0
14.5,164.0
14.51,163.0
14.52,156.0
14.53,164.0
14.54,177.0
14.55,156.0
14.56,177.0
14.57,188.0
14.58,157.0
14.59,190.0
14.6,178.0
14.61,135.0
14.62,160.0
14.63,187.0
14.64,167.0
14.65,173.0
14.66,175.0
14.67,165.0
14.68,193.0
14.69,151.0
14.7,154.0
14.71,170.0
14.72,181.0
14.73,168.0
14.74,147.0
14.75,180.0
14.76,161.0
14.77,176.0
14.78,178.0
14.79,192.0
14.8,160.0
14.81,184.0
14.82,155.0
14.83,173.0
14.84,172.0
14.85,179.0
14.86,172.0
14.87,187.0
14.88,157.0
14.89,178.0
14.9,184.0
14.91,185.0
14.92,178.0
14.93,184.0
14.94,173.0
14.95,199.0
14.96,165.0
14.97,157.0
14.98,156.0
14.99,153.0
15.0,198.0
15.01,169.0
15.02,177.0
15.03,161.0
15.04,151.0
15.05,134.0
15.06,163.0
15.07,164.0
15.08,184.0
15.09,190.0
15.1,161.0
15.11,193.0
15.12,163.0
15.13,171.0
15.14,167.0
15.15,177.0
15.16,173.0
15.17,157.0
15.18,150.0
15.19,176.0
15.2,179.0
15.21,194.0
15.22,171.0
15.23,170.0
15.24,168.0
15.25,179.0
15.26,151.0
15.27,196.0
15.28,164.0
15.29,181.0
15.3,159.0
15.31,174.0
15.32,153.0
15.33,170.0
15.34,174.0
15.35,197.0
15.36,170.0
15.37,191.0
15.38,184.0
15.39,159.0
15.4,168.0
15.41,189.0
15.42,188.0
15.43,161.0
15.44,193.0
15.45,169.0
15.46,169.0
15.47,172.0
15.48,158.0
15.49,193.0
15.5,185.0
15.51,161.0
15.52,184.0
15.53,171.0
15.54,154.0
15.55,175.0
15.56,177.0
15.57,188.0
15.58,172.0
15.59,174.0
15.6,182.0
15.61,162.0
15.62,206.0
15.63,176.0
15.64,155.0
15.65,198.0
15.66,179.0
15.67,201.0
15.68,150.0
15.69,154.0
15.7,175.0
15.71,157.0
15.72,193.0
15.73,195.0
15.74,173.0
15.75,171.0
15.76,172.0
15.77,168.0
15.78,169.0
15.79,188.0
15.8,161.0
15.81,183.0
15.82,173.0
15.83,166.0
15.84,149.0
15.85,180.0
15.86,173.0
15.87,176.0
15.88,175.0
15.89,160.0
15.9,179.0
15.91,148.0
15.92,173.0
15.93,160.0
15.94,182.0
15.95,160.0
15.96,174.0
15.97,199.0
15.98,173.0
15.99,164.0
16.0,201.0
16.01,172.0
16.02,167.0
16.03,190.0
16.04,180.0
16.05,178.0
16.06,187.0
16.07,164.0
16.08,174.0
16.09,171.0
16.1,180.0
16.11,168.0
16.12,170.0
16.13,184.0
16.14,156.0
16.15,159.0
16.16,174.0
16.17,193.0
16.18,177.0
16.19,201.0
16.2,149.0
16.21,189.0
16.22,163.0
16.23,148.0
16.24,157.0
16.25,170.0
16.26,180.0
16.27,203.0
16.28,199.0
16.29,166.0
16.3,187.0
16.31,153.0
16.32,182.0
16.33,200.0
16.34,185.0
16.35,158.0
16.36,181.0
16.37,190.0
16.38,174.0
16.39,187.0
16.4,188.0
16.41,196.0
16.42,181.0
16.43,184.0
16.44,160.0
16.45,173.0
16.46,183.0
16.47,196.0
16.48,167.0
16.49,150.0
16.5,156.0
16.51,157.0
16.52,155.0
16.53,173.0
16.54,166.0
16.55,172.0
16.56,188.0
16.57,159.0
16.58,177.0
16.59,186.0
16.6,175.0
16.61,179.0
16.62,172.0
16.63,185.0
16.64,186.0
16.65,190.0
16.66,163.0
16.67,174.0
16.68,178.0
16.69,165.0
16.7,171.0
16.71,156.0
16.72,173.0
16.73,184.0
16.74,168.0
16.75,203.0
16.76,162.0
16.77,179.0
16.78,181.0
16.79,174.0
16.8,179.0
16.81,179.0
16.82,183.0
16.83,156.0
16.84,195.0
16.85,166.0
16.86,168.0
16.87,186.0
16.88,183.0
16.89,206.0
16.9,190.0
16.91,179.0
16.92,186.0
16.93,186.0
16.94,201.0
16.95,183.0
16.96,175.0
16.97,155.0
16.98,182.0
16.99,170.0
17.0,159.0
17.01,176.0
17.02,181.0
17.03,153.0
17.04,147.0
17.05,190.0
17.06,179.0
17.07,181.0
17.08,187.0
17.09,159.0
17.1,180.0
17.11,160.0
17.12,192.0
17.13,176.0
17.14,169.0
17.15,173.0
17.16,198.0
17.17,171.0
17.18,165.0
17.19,181.0
17.2,197.0
17.21,182.0
17.22,180.0
17.23,159.0
17.24,174.0
17.25,192.0
17.26,164.0
17.27,179.0
17.28,192.0
17.29,184.0
17.3,177.0
17.31,186.0
17.32,197.0
17.33,184.0
17.34,179.0
17.35,176.0
17.36,173.0
17.37,173.0
17.38,208.0
17.39,189.0
17.4,190.0
17.41,156.0
17.42,178.0
17.43,191.0
17.44,158.0
17.45,190.0
17.46,173.0
17.47,163.0
17.48,201.0
17.49,174.0
17.5,184.0
17.51,170.0
17.52,177.0
17.53,191.0
17.54,181.0
17.55,168.0
17.56,155.0
17.57,176.0
17.58,174.0
17.59,163.0
17.6,157.0
17.61,163.0
17.62,182.0
17.63,180.0
17.64,188.0
17.65,164.0
17.66,172.0
17.67,181.0
17.68,177.0
17.69,186.0
17.7,204.0
17.71,175.0
17.72,160.0
17.73,203.0
17.74,166.0
17.75,172.0
17.76,170.0
17.77,196.0
17.78,181.0
17.79,167.0
17.8,165.0
17.81,170.0
17.82,186.0
17.83,176.0
17.84,187.0
17.85,196.0
17.86,174.0
17.87,187.0
17.88,166.0
17.89,179.0
17.9,181.0
17.91,191.0
17.92,204.0
17.93,175.0
17.94,187.0
17.95,172.0
17.96,182.0
17.97,168.0
17.98,191.0
17.99,177.0
18.0,161.0
18.01,192.0
18.02,198.0
18.03,182.0
18.04,190.0
18.05,189.0
18.06,163.0
18.07,193.0
18.08,196.0
18.09,211.0
18.1,213.0
18.11,197.0
18.12,205.0
18.13,224.0
18.14,179.0
18.15,228.0
18.16,256.0
18.17,267.0
18.18,258.0
18.19,237.0
18.2,236.0
18.21,254.0
18.22,228.0
18.23,201.0
18.24,212.0
18.25,189.0
18.26,197.0
18.27,183.0
18.28,198.0
18.29,171.0
18.3,187.0
18.31,199.0
18.32,183.0
18.33,189.0
18.34,181.0
18.35,186.0
18.36,183.0
18.37,173.0
18.38,192.0
18.39,169.0
18.4,207.0
18.41,185.0
18.42,170.0
18.43,203.0
18.44,169.0
18.45,175.0
18.46,183.0
18.47,211.0
18.48,177.0
18.49,174.0
18.5,199.0
18.51,172.0
18.52,181.0
18.53,174.0
18.54,188.0
18.55,198.0
18.56,177.0
18.57,175.0
18.58,165.0
18.59,160.0
18.6,165.0
18.61,190.0
18.62,187.0
18.63,199.0
18.64,167.0
18.65,203.0
18.66,178.0
18.67,214.0
18.68,180.0
18.69,194.0
18.7,166.0
18.71,173.0
18.72,217.0
18.73,190.0
18.74,197.0
18.75,171.0
18.76,154.0
18.77,179.0
18.78,190.0
18.79,173.0
18.8,181.0
18.81,200.0
18.82,186.0
18.83,186.0
18.84,170.0
18.85,185.0
18.86,181.0
18.87,170.0
18.88,196.0
18.89,188.0
18.9,188.0
18.91,188.0
18.92,184.0
18.93,200.0
18.94,188.0
18.95,176.0
18.96,173.0
18.97,177.0
18.98,195.0
18.99,170.0
19.0,182.0
19.01,180.0
19.02,172.0
19.03,182.0
19.04,160.0
19.05,202.0
19.06,200.0
19.07,190.0
19.08,175.0
19.09,190.0
19.1,185.0
19.11,161.0
19.12,184.0
19.13,194.0
19.14,183.0
19.15,198.0
19.16,180.0
19.17,185.0
19.18,210.0
19.19,201.0
19.2,196.0
19.21,178.0
19.22,187.0
19.23,166.0
19.24,176.0
19.25,197.0
19.26,165.0
19.27,193.0
19.28,176.0
19.29,173.0
19.3,193.0
19.31,182.0
19.32,180.0
19.33,178.0
19.34,227.0
19.35,170.0
19.36,195.0
19.37,179.0
19.38,195.0
19.39,166.0
19.4,191.0
19.41,200.0
19.42,185.0
19.43,186.0
19.44,174.0
19.45,194.0
19.46,221.0
19.47,187.0
19.48,171.0
19.49,162.0
19.5,180.0
19.51,168.0
19.52,174.0
19.53,182.0
19.54,189.0
19.55,173.0
19.56,203.0
19.57,205.0
19.58,179.0
19.59,166.0
19.6,212.0
19.61,210.0
19.62,179.0
19.63,164.0
19.64,173.0
19.65,189.0
19.66,171.0
19.67,186.0
19.68,173.0
19.69,169.0
19.7,186.0
19.71,175.0
19.72,184.0
19.73,187.0
19.74,158.0
19.75,174.0
19.76,180.0
19.77,173.0
19.78,173.0
19.79,202.0
19.8,206.0
19.81,202.0
19.82,203.0
19.83,175.0
19.84,175.0
19.85,179.0
19.86,196.0
19.87,181.0
19.88,172.0
19.89,140.0
19.9,199.0
19.91,173.0
19.92,190.0
19.93,189.0
19.94,176.0
19.95,180.0
19.96,194.0
19.97,195.0
19.98,174.0
19.99,180.0
20.0,182.0
20.01,183.0
20.02,196.0
20.03,205.0
20.04,179.0
20.05,162.0
20.06,181.0
20.07,196.0
20.08,171.0
20.09,200.0
20.1,195.0
20.11,167.0
20.12,198.0
20.13,216.0
20.14,200.0
20.15,193.0
20.16,184.0
20.17,184.0
20.18,209.0
20.19,199.0
20.2,195.0
20.21,215.0
20.22,218.0
20.23,162.0
20.24,203.0
20.25,192.0
20.26,171.0
20.27,175.0
20.28,150.0
20.29,195.0
20.3,201.0
20.31,204.0
20.32,192.0
20.33,172.0
20.34,184.0
20.35,194.0
20.36,184.0
20.37,189.0
20.38,213.0
20.39,164.0
20.4,172.0
20.41,205.0
20.42,181.0
20.43,178.0
20.44,175.0
20.45,208.0
20.46,198.0
20.47,204.0
20.48,186.0
20.49,212.0
20.5,178.0
20.51,184.0
20.52,192.0
20.53,204.0
20.54,182.0
20.55,186.0
20.56,208.0
20.57,169.0
20.58,185.0
20.59,188.0
20.6,173.0
20.61,200.0
20.62,187.0
20.63,195.0
20.64,186.0
20.65,182.0
20.66,191.0
20.67,189.0
20.68,178.0
20.69,188.0
20.7,209.0
20.71,192.0
20.72,167.0
20.73,171.0
20.74,192.0
20.75,194.0
20.76,170.0
20.77,187.0
20.78,190.0
20.79,168.0
20.8,200.0
20.81,209.0
20.82,194.0
20.83,216.0
20.84,196.0
20.85,181.0
20.86,203.0
20.87,205.0
20.88,186.0
20.89,191.0
20.9,181.0
20.91,199.0
20.92,163.0
20.93,227.0
20.94,184.0
20.95,167.0
20.96,181.0
20.97,203.0
20.98,205.0
20.99,178.0
21.0,175.0
21.01,198.0
21.02,192.0
21.03,185.0
21.04,170.0
21.05,196.0
21.06,180.0
21.07,188.0
21.08,190.0
21.09,192.0
21.1,181.0
21.11,185.0
21.12,173.0
21.13,201.0
21.14,150.0
21.15,219.0
21.16,197.0
21.17,203.0
21.18,176.0
21.19,187.0
21.2,189.0
21.21,205.0
21.22,186.0
21.23,200.0
21.24,193.0
21.25,219.0
21.26,167.0
21.27,173.0
21.28,183.0
21.29,197.0
21.3,189.0
21.31,188.0
21.32,178.0
21.33,196.0
21.34,167.0
21.35,169.0
21.36,183.0
21.37,197.0
21.38,211.0
21.39,174.0
21.4,195.0
21.41,188.0
21.42,210.0
21.43,184.0
21.44,201.0
21.45,176.0
21.46,179.0
21.47,176.0
21.48,199.0
21.49,190.0
21.5,185.0
21.51,192.0
21.52,184.0
21.53,185.0
21.54,177.0
21.55,187.0
21.56,178.0
21.57,185.0
21.58,180.0
21.59,191.0
21.6,213.0
21.61,179.0
21.62,192.0
21.63,194.0
21.64,198.0
21.65,187.0
21.66,220.0
21.67,195.0
21.68,179.0
21.69,184.0
21.7,221.0
21.71,198.0
21.72,177.0
21.73,190.0
21.74,179.0
21.75,185.0
21.76,194.0
21.77,195.0
21.78,205.0
21.79,183.0
21.8,177.0
21.81,184.0
21.82,225.0
21.83,192.0
21.84,171.0
21.85,214.0
21.86,149.0
21.87,192.0
21.88,193.0
21.89,187.0
21.9,183.0
21.91,183.0
21.92,192.0
21.93,197.0
21.94,188.0
21.95,210.0
21.96,184.0
21.97,180.0
21.98,162.0
21.99,189.0
22.0,212.0
22.01,180.0
22.02,171.0
22.03,182.0
22.04,184.0
22.05,204.0
22.06,187.0
22.07,179.0
22.08,195.0
22.09,191.0
22.1,181.0
22.11,203.0
22.12,188.0
22.13,176.0
22.14,224.0
22.15,195.0
22.16,199.0
22.17,177.0
22.18,213.0
22.19,191.0
22.2,201.0
22.21,163.0
22.22,169.0
22.23,190.0
22.24,199.0
22.25,193.0
22.26,161.0
22.27,186.0
22.28,200.0
22.29,191.0
22.3,170.0
22.31,179.0
22.32,168.0
22.33,195.0
22.34,184.0
22.35,198.0
22.36,190.0
22.37,184.0
22.38,172.0
22.39,191.0
22.4,187.0
22.41,177.0
22.42,195.0
22.43,174.0
22.44,199.0
22.45,197.0
22.46,178.0
22.47,189.0
22.48,195.0
22.49,181.0
22.5,181.0
22.51,193.0
22.52,195.0
22.53,208.0
22.54,206.0
22.55,203.0
22.56,192.0
22.57,203.0
22.58,212.0
22.59,183.0
22.6,191.0
22.61,178.0
22.62,185.0
22.63,217.0
22.64,199.0
22.65,199.0
22.66,204.0
22.67,183.0
22.68,171.0
22.69,193.0
22.7,186.0
22.71,177.0
22.72,186.0
22.73,210.0
22.74,195.0
22.75,209.0
22.76,187.0
22.77,182.0
22.78,187.0
22.79,175.0
22.8,212.0
22.81,176.0
22.82,190.0
22.83,207.0
22.84,205.0
22.85,180.0
22.86,182.0
22.87,193.0
22.88,209.0
22.89,182.0
22.9,201.0
22.91,187.0
22.92,191.0
22.93,213.0
22.94,204.0
22.95,211.0
22.96,184.0
22.97,202.0
22.98,212.0
22.99,180.0
23.0,186.0
23.01,201.0
23.02,204.0
23.03,200.0
23.04,179.0
23.05,177.0
23.06,192.0
23.07,196.0
23.08,195.0
23.09,204.0
23.1,210.0
23.11,194.0
23.12,191.0
23.13,155.0
23.14,174.0
23.15,209.0
23.16,191.0
23.17,191.0
23.18,187.0
23.19,197.0
23.2,194.0
23.21,185.0
23.22,191.0
23.23,198.0
23.24,180.0
23.25,181.0
23.26,204.0
23.27,193.0
23.28,228.0
23.29,187.0
23.3,192.0
23.31,171.0
23.32,170.0
23.33,176.0
23.34,213.0
23.35,188.0
23.36,227.0
23.37,179.0
23.38,205.0
23.39,198.0
23.4,171.0
23.41,189.0
23.42,190.0
23.43,181.0
23.44,190.0
23.45,216.0
23.46,217.0
23.47,179.0
23.48,196.0
23.49,184.0
23.5,200.0
23.51,203.0
23.52,208.0
23.53,205.0
23.54,209.0
23.55,195.0
23.56,195.0
23.57,191.0
23.58,192.0
23.59,193.0
23.6,201.0
23.61,161.0
23.62,214.0
23.63,191.0
23.64,195.0
23.65,174.0
23.66,199.0
23.67,195.0
23.68,225.0
23.69,187.0
23.7,199.0
23.71,219.0
23.72,190.0
23.73,199.0
23.74,202.0
23.75,189.0
23.76,192.0
23.77,179.0
23.78,194.0
23.79,203.0
23.8,198.0
23.81,191.0
23.82,199.0
23.83,184.0
23.84,177.0
23.85,179.0
23.86,164.0
23.87,195.0
23.88,184.0
23.89,193.0
23.9,186.0
23.91,225.0
23.92,205.0
23.93,174.0
23.94,165.0
23.95,198.0
23.96,204.0
23.97,214.0
23.98,200.0
23.99,204.0
24.0,170.0
24.01,165.0
24.02,174.0
24.03,201.0
24.04,190.0
24.05,200.0
24.06,202.0
24.07,187.0
24.08,191.0
24.09,202.0
24.1,198.0
24.11,196.0
24.12,183.0
24.13,181.0
24.14,189.0
24.15,203.0
24.16,188.0
24.17,184.0
24.18,215.0
24.19,224.0
24.2,178.0
24.21,198.0
24.22,198.0
24.23,201.0
24.24,227.0
24.25,194.0
24.26,198.0
24.27,187.0
24.28,197.0
24.29,207.0
24.3,208.0
24.31,214.0
24.32,181.0
24.33,180.0
24.34,228.0
24.35,192.0
24.36,196.0
24.37,190.0
24.38,196.0
24.39,217.0
24.4,163.0
24.41,211.0
24.42,215.0
24.43,216.0
24.44,232.0
24.45,194.0
24.46,216.0
24.47,192.0
24.48,202.0
24.49,187.0
24.5,205.0
24.51,185.0
24.52,216.0
24.53,187.0
24.54,219.0
24.55,212.0
24.56,193.0
24.57,195.0
24.58,198.0
24.59,222.0
24.6,211.0
24.61,212.0
24.62,200.0
24.63,207.0
24.64,209.0
24.65,175.0
24.66,187.0
24.67,176.0
24.68,190.0
24.69,201.0
24.7,204.0
24.71,172.0
24.72,221.0
24.73,194.0
24.74,201.0
24.75,197.0
24.76,223.0
24.77,196.0
24.78,199.0
24.79,204.0
24.8,195.0
24.81,187.0
24.82,221.0
24.83,196.0
24.84,200.0
24.85,175.0
24.86,187.0
24.87,178.0
24.88,205.0
24.89,203.0
24.9,205.0
24.91,199.0
24.92,189.0
24.93,189.0
24.94,182.0
24.95,207.0
24.96,206.0
24.97,181.0
24.98,202.0
24.99,201.0
25.0,212.0
25.01,185.0
25.02,222.0
25.03,197.0
25.04,204.0
25.05,204.0
25.06,199.0
25.07,196.0
25.08,197.0
25.09,204.0
25.1,182.0
25.11,186.0
25.12,181.0
25.13,212.0
25.14,169.0
25.15,226.0
25.16,204.0
25.17,191.0
25.18,207.0
25.19,205.0
25.2,201.0
25.21,167.0
25.22,194.0
25.23,182.0
25.24,180.0
25.25,219.0
25.26,204.0
25.27,202.0
25.28,183.0
25.29,198.0
25.3,199.0
25.31,174.0
25.32,191.0
25.33,208.0
25.34,191.0
25.35,210.0
25.36,176.0
25.37,197.0
25.38,192.0
25.39,214.0
25.4,196.0
25.41,191.0
25.42,183.0
25.43,216.0
25.44,192.0
25.45,192.0
25.46,194.0
25.47,193.0
25.48,208.0
25.49,195.0
25.5,195.0
25.51,211.0
25.52,189.0
25.53,194.0
25.54,186.0
25.55,188.0
25.56,190.0
25.57,182.0
25.58,177.0
25.59,192.0
25.6,197.0
25.61,202.0
25.62,235.0
25.63,209.0
25.64,185.0
25.65,221.0
25.66,180.0
25.67,206.0
25.68,208.0
25.69,197.0
25.7,215.0
25.71,193.0
25.72,195.0
25.73,203.0
25.74,196.0
25.75,199.0
25.76,200.0
25.77,202.0
25.78,212.0
25.79,203.0
25.8,198.0
25.81,193.0
25.82,221.0
25.83,178.0
25.84,191.0
25.85,227.0
25.86,195.0
25.87,190.0
25.88,216.0
25.89,210.0
25.9,207.0
25.91,202.0
25.92,205.0
25.93,206.0
25.94,173.0
25.95,197.0
25.96,213.0
25.97,188.0
25.98,190.0
25.99,217.0
26.0,221.0
26.01,199.0
26.02,200.0
26.03,191.0
26.04,200.0
26.05,201.0
26.06,215.0
26.07,221.0
26.08,178.0
26.09,201.0
26.1,205.0
26.11,204.0
26.12,192.0
26.13,215.0
26.14,215.0
26.15,192.0
26.16,197.0
26.17,190.0
26.18,209.0
26.19,201.0
26.2,175.0
26.21,190.0
26.22,178.0
26.23,196.0
26.24,230.0
26.25,204.0
26.26,186.0
26.27,211.0
26.28,187.0
26.29,191.0
26.3,197.0
26.31,204.0
26.32,218.0
26.33,235.0
26.34,202.0
26.35,219.0
26.36,228.0
26.37,191.0
26.38,202.0
26.39,204.0
26.4,199.0
26.41,197.0
26.42,186.0
26.43,199.0
26.44,209.0
26.45,188.0
26.46,203.0
26.47,197.0
26.48,211.0
26.49,201.0
26.5,242.0
26.51,185.0
26.52,182.0
26.53,232.0
26.54,185.0
26.55,208.0
26.56,193.0
26.57,190.0
26.58,217.0
26.59,198.0
26.6,205.0
26.61,205.0
26.62,208.0
26.63,210.0
26.64,199.0
26.65,205.0
26.66,228.0
26.67,201.0
26.68,189.0
26.69,214.0
26.7,202.0
26.71,192.0
26.72,193.0
26.73,212.0
26.74,211.0
26.75,200.0
26.76,185.0
26.77,199.0
26.78,210.0
26.79,204.0
26.8,205.0
26.81,195.0
26.82,196.0
26.83,216.0
26.84,182.0
26.85,176.0
26.86,189.0
26.87,215.0
26.88,187.0
26.89,188.0
26.9,210.0
26.91,184.0
26.92,221.0
26.93,213.0
26.94,200.0
26.95,205.0
26.96,191.0
26.97,219.0
26.98,197.0
26.99,198.0
27.0,198.0
27.01,196.0
27.02,212.0
27.03,217.0
27.04,188.0
27.05,226.0
27.06,198.0
27.07,181.0
27.08,196.0
27.09,222.0
27.1,234.0
27.11,207.0
27.12,234.0
27.13,206.0
27.14,177.0
27.15,188.0
27.16,195.0
27.17,207.0
27.18,205.0
27.19,213.0
27.2,193.0
27.21,187.0
27.22,208.0
27.23,203.0
27.24,191.0
27.25,218.0
27.26,199.0
27.27,222.0
27.28,204.0
27.29,207.0
27.3,200.0
27.31,209.0
27.32,200.0
27.33,204.0
27.34,185.0
27.35,215.0
27.36,212.0
27.37,207.0
27.38,184.0
27.39,176.0
27.4,178.0
27.41,207.0
27.42,176.0
27.43,204.0
27.44,217.0
27.45,224.0
27.46,208.0
27.47,207.0
27.48,189.0
27.49,198.0
27.5,208.0
27.51,158.0
27.52,217.0
27.53,210.0
27.54,222.0
27.55,190.0
27.56,197.0
27.57,198.0
27.58,199.0
27.59,216.0
27.6,192.0
27.61,202.0
27.62,185.0
27.63,189.0
27.64,191.0
27.65,217.0
27.66,199.0
27.67,222.0
27.68,216.0
27.69,196.0
27.7,191.0
27.71,192.0
27.72,183.0
27.73,185.0
27.74,197.0
27.75,201.0
27.76,190.0
27.77,201.0
27.78,193.0
27.79,219.0
27.8,216.0
27.81,211.0
27.82,221.0
27.83,189.0
27.84,197.0
27.85,186.0
27.86,232.0
27.87,201.0
27.88,196.0
27.89,177.0
27.9,219.0
27.91,215.0
27.92,198.0
27.93,194.0
27.94,208.0
27.95,218.0
27.96,194.0
27.97,212.0
27.98,210.0
27.99,218.0
28.0,214.0
28.01,211.0
28.02,193.0
28.03,212.0
28.04,225.0
28.05,198.0
28.06,166.0
28.07,185.0
28.08,189.0
28.09,161.0
28.1,185.0
28.11,189.0
28.12,212.0
28.13,219.0
28.14,195.0
28.15,194.0
28.16,205.0
28.17,170.0
28.18,193.0
28.19,190.0
28.2,229.0
28.21,195.0
28.22,197.0
28.23,219.0
28.24,173.0
28.25,208.0
28.26,198.0
28.27,224.0
28.28,220.0
28.29,180.0
28.3,210.0
28.31,215.0
28.32,224.0
28.33,248.0
28.34,196.0
28.35,207.0
28.36,212.0
28.37,195.0
28.38,216.0
28.39,177.0
28.4,226.0
28.41,199.0
28.42,207.0
28.43,199.0
28.44,191.0
28.45,189.0
28.46,204.0
28.47,201.0
28.48,186.0
28.49,223.0
28.5,190.0
28.51,203.0
28.52,184.0
28.53,206.0
28.54,194.0
28.55,189.0
28.56,209.0
28.57,183.0
28.58,189.0
28.59,186.0
28.6,207.0
28.61,175.0
28.62,199.0
28.63,217.0
28.64,201.0
28.65,191.0
28.66,199.0
28.67,187.0
28.68,210.0
28.69,193.0
28.7,208.0
28.71,205.0
28.72,191.0
28.73,194.0
28.74,222.0
28.75,209.0
28.76,201.0
28.77,191.0
28.78,221.0
28.79,208.0
28.8,213.0
28.81,205.0
28.82,214.0
28.83,190.0
28.84,226.0
28.85,197.0
28.86,193.0
28.87,220.0
28.88,233.0
28.89,195.0
28.9,209.0
28.91,206.0
28.92,208.0
28.93,200.0
28.94,228.0
28.95,208.0
28.96,206.0
28.97,221.0
28.98,204.0
28.99,232.0
29.0,186.0
29.01,222.0
29.02,184.0
29.03,196.0
29.04,198.0
29.05,202.0
29.06,183.0
29.07,193.0
29.08,204.0
29.09,187.0
29.1,190.0
29.11,192.0
29.12,217.0
29.13,207.0
29.14,210.0
29.15,192.0
29.16,194.0
29.17,195.0
29.18,217.0
29.19,225.0
29.2,186.0
29.21,191.0
29.22,207.0
29.23,180.0
29.24,215.0
29.25,207.0
29.26,222.0
29.27,209.0
29.28,208.0
29.29,209.0
29.3,197.0
29.31,223.0
29.32,188.0
29.33,198.0
29.34,196.0
29.35,235.0
29.36,185.0
29.37,233.0
29.38,166.0
29.39,200.0
29.4,207.0
29.41,189.0
29.42,217.0
29.43,205.0
29.44,201.0
29.45,193.0
29.46,195.0
29.47,195.0
29.48,203.0
29.49,210.0
29.5,205.0
29.51,212.0
29.52,231.0
29.53,232.0
29.54,213.0
29.55,223.0
29.56,227.0
29.57,222.0
29.58,196.0
29.59,219.0
29.6,209.0
29.61,199.0
29.62,194.0
29.63,201.0
29.64,212.0
29.65,241.0
29.66,203.0
29.67,231.0
29.68,194.0
29.69,213.0
29.7,224.0
29.71,228.0
29.72,226.0
29.73,234.0
29.74,230.0
29.75,217.0
29.76,225.0
29.77,246.0
29.78,259.0
29.79,296.0
29.8,271.0
29.81,274.0
29.82,320.0
29.83,337.0
29.84,413.0
29.85,490.0
29.86,497.0
29.87,532.0
29.88,466.0
29.89,386.0
29.9,356.0
29.91,319.0
29.92,366.0
29.93,390.0
29.94,386.0
29.95,371.0
29.96,361.0
29.97,286.0
29.98,273.0
29.99,234.0
30.0,217.0
30.01,232.0
30.02,224.0
30.03,224.0
30.04,240.0
30.05,250.0
30.06,234.0
30.07,212.0
30.08,222.0
30.09,214.0
30.1,219.0
30.11,227.0
30.12,219.0
30.13,239.0
30.14,223.0
30.15,209.0
30.16,212.0
30.17,207.0
30.18,207.0
30.19,221.0
30.2,221.0
30.21,195.0
30.22,207.0
30.23,208.0
30.24,206.0
30.25,203.0
30.26,197.0
30.27,242.0
30.28,214.0
30.29,219.0
30.3,221.0
30.31,198.0
30.32,189.0
30.33,218.0
30.34,204.0
30.35,220.0
30.36,190.0
30.37,182.0
30.38,213.0
30.39,197.0
30.4,206.0
30.41,220.0
30.42,198.0
30.43,205.0
30.44,205.0
30.45,213.0
30.46,197.0
30.47,209.0
30.48,196.0
30.49,187.0
30.5,193.0
30.51,211.0
30.52,222.0
30.53,213.0
30.54,188.0
30.55,204.0
30.56,216.0
30.57,210.0
30.58,208.0
30.59,208.0
30.6,203.0
30.61,173.0
30.62,189.0
30.63,199.0
30.64,190.0
30.65,196.0
30.66,216.0
30.67,208.0
30.68,199.0
30.69,205.0
30.7,213.0
30.71,215.0
30.72,211.0
30.73,218.0
30.74,204.0
30.75,215.0
30.76,211.0
30.77,193.0
30.78,235.0
30.79,224.0
30.8,209.0
30.81,229.0
30.82,213.0
30.83,216.0
30.84,228.0
30.85,236.0
30.86,216.0
30.87,204.0
30.88,215.0
30.89,227.0
30.9,210.0
30.91,208.0
30.92,198.0
30.93,207.0
30.94,205.0
30.95,205.0
30.96,191.0
30.97,216.0
30.98,206.0
30.99,219.0
31.0,213.0
31.01,196.0
31.02,197.0
31.03,208.0
31.04,216.0
31.05,178.0
31.06,233.0
31.07,196.0
31.08,198.0
31.09,201.0
31.1,232.0
31.11,208.0
31.12,203.0
31.13,222.0
31.14,185.0
31.15,212.0
31.16,219.0
31.17,182.0
31.18,225.0
31.19,216.0
31.2,219.0
31.21,247.0
31.22,205.0
31.23,211.0
31.24,196.0
31.25,177.0
31.26,210.0
31.27,197.0
31.28,201.0
31.29,198.0
31.3,237.0
31.31,233.0
31.32,227.0
31.33,193.0
31.34,201.0
31.35,187.0
31.36,213.0
31.37,204.0
31.38,212.0
31.39,224.0
31.4,220.0
31.41,196.0
31.42,207.0
31.43,200.0
31.44,208.0
31.45,187.0
31.46,225.0
31.47,238.0
31.48,191.0
31.49,210.0
31.5,225.0
31.51,201.0
31.52,215.0
31.53,172.0
31.54,206.0
31.55,217.0
31.56,182.0
31.57,221.0
31.58,202.0
31.59,205.0
31.6,217.0
31.61,232.0
31.62,202.0
31.63,183.0
31.64,191.0
31.65,207.0
31.66,216.0
31.67,231.0
31.68,200.0
31.69,206.0
31.7,231.0
31.71,221.0
31.72,223.0
31.73,191.0
31.74,206.0
31.75,184.0
31.76,203.0
31.77,215.0
31.78,246.0
31.79,182.0
31.8,241.0
31.81,234.0
31.82,197.0
31.83,228.0
31.84,221.0
31.85,220.0
31.86,212.0
31.87,195.0
31.88,202.0
31.89,188.0
31.9,206.0
31.91,214.0
31.92,204.0
31.93,228.0
31.94,195.0
31.95,195.0
31.96,199.0
31.97,235.0
31.98,216.0
31.99,216.0
32.0,201.0
32.01,225.0
32.02,203.0
32.03,206.0
32.04,200.0
32.05,196.0
32.06,224.0
32.07,209.0
32.08,218.0
32.09,201.0
32.1,207.0
32.11,201.0
32.12,245.0
32.13,214.0
32.14,201.0
32.15,207.0
32.16,213.0
32.17,203.0
32.18,225.0
32.19,201.0
32.2,216.0
32.21,209.0
32.22,228.0
32.23,211.0
32.24,203.0
32.25,212.0
32.26,227.0
32.27,206.0
32.28,198.0
32.29,211.0
32.3,217.0
32.31,219.0
32.32,193.0
32.33,209.0
32.34,196.0
32.35,184.0
32.36,208.0
32.37,217.0
32.38,217.0
32.39,217.0
32.4,169.0
32.41,192.0
32.42,185.0
32.43,212.0
32.44,245.0
32.45,212.0
32.46,221.0
32.47,211.0
32.48,199.0
32.49,191.0
32.5,209.0
32.51,216.0
32.52,221.0
32.53,196.0
32.54,221.0
32.55,227.0
32.56,194.0
32.57,203.0
32.58,215.0
32.59,187.0
32.6,202.0
32.61,223.0
32.62,212.0
32.63,195.0
32.64,202.0
32.65,208.0
32.66,202.0
32.67,199.0
32.68,216.0
32.69,208.0
32.7,190.0
32.71,204.0
32.72,214.0
32.73,190.0
32.74,200.0
32.75,213.0
32.76,227.0
32.77,207.0
32.78,198.0
32.79,198.0
32.8,227.0
32.81,209.0
32.82,221.0
32.83,227.0
32.84,220.0
32.85,222.0
32.86,202.0
32.87,222.0
32.88,229.0
32.89,233.0
32.9,186.0
32.91,185.0
32.92,224.0
32.93,214.0
32.94,188.0
32.95,208.0
32.96,219.0
32.97,220.0
32.98,204.0
32.99,221.0
33.0,233.0
33.01,218.0
33.02,199.0
33.03,236.0
33.04,195.0
33.05,206.0
33.06,197.0
33.07,203.0
33.08,200.0
33.09,206.0
33.1,201.0
33.11,237.0
33.12,198.0
33.13,216.0
33.14,225.0
33.15,215.0
33.16,197.0
33.17,208.0
33.18,189.0
33.19,224.0
33.2,224.0
33.21,222.0
33.22,223.0
33.23,210.0
33.24,194.0
33.25,212.0
33.26,206.0
33.27,216.0
33.28,212.0
33.29,187.0
33.3,218.0
33.31,199.0
33.32,193.0
33.33,205.0
33.34,231.0
33.35,216.0
33.36,247.0
33.37,213.0
33.38,209.0
33.39,223.0
33.4,215.0
33.41,219.0
33.42,220.0
33.43,214.0
33.44,201.0
33.45,217.0
33.46,203.0
33.47,220.0
33.48,208.0
33.49,225.0
33.5,195.0
33.51,218.0
33.52,203.0
33.53,210.0
33.54,211.0
33.55,228.0
33.56,216.0
33.57,187.0
33.58,229.0
33.59,166.0
33.6,201.0
33.61,205.0
33.62,183.0
33.63,220.0
33.64,221.0
33.65,210.0
33.66,201.0
33.67,226.0
33.68,229.0
33.69,213.0
33.7,213.0
33.71,200.0
33.72,191.0
33.73,197.0
33.74,204.0
33.75,204.0
33.76,233.0
33.77,224.0
33.78,212.0
33.79,206.0
33.8,203.0
33.81,225.0
33.82,205.0
33.83,232.0
33.84,197.0
33.85,206.0
33.86,223.0
33.87,222.0
33.88,194.0
33.89,202.0
33.9,214.0
33.91,211.0
33.92,214.0
33.93,222.0
33.94,210.0
33.95,242.0
33.96,232.0
33.97,201.0
33.98,220.0
33.99,201.0
34.0,232.0
34.01,195.0
34.02,208.0
34.03,217.0
34.04,199.0
34.05,225.0
34.06,176.0
34.07,223.0
34.08,217.0
34.09,236.0
34.1,221.0
34.11,178.0
34.12,239.0
34.13,230.0
34.14,208.0
34.15,220.0
34.16,204.0
34.17,214.0
34.18,230.0
34.19,212.0
34.2,211.0
34.21,228.0
34.22,211.0
34.23,222.0
34.24,231.0
34.25,219.0
34.26,222.0
34.27,209.0
34.28,206.0
34.29,199.0
34.3,201.0
34.31,224.0
34.32,238.0
34.33,193.0
34.34,229.0
34.35,204.0
34.36,195.0
34.37,201.0
34.38,213.0
34.39,243.0
34.4,195.0
34.41,222.0
34.42,207.0
34.43,221.0
34.44,189.0
34.45,207.0
34.46,207.0
34.47,187.0
34.48,228.0
34.49,205.0
34.5,193.0
34.51,218.0
34.52,207.0
34.53,219.0
34.54,222.0
34.55,212.0
34.56,223.0
34.57,219.0
34.58,191.0
34.59,197.0
34.6,199.0
34.61,232.0
34.62,234.0
34.63,225.0
34.64,214.0
34.65,247.0
34.66,232.0
34.67,267.0
34.68,213.0
34.69,232.0
34.7,243.0
34.71,223.0
34.72,242.0
34.73,235.0
34.74,214.0
34.75,231.0
34.76,232.0
34.77,231.0
34.78,239.0
34.79,209.0
34.8,244.0
34.81,234.0
34.82,229.0
34.83,212.0
34.84,271.0
34.85,259.0
34.86,229.0
34.87,232.0
34.88,255.0
34.89,241.0
34.9,212.0
34.91,244.0
34.92,238.0
34.93,273.0
34.94,288.0
34.95,253.0
34.96,275.0
34.97,281.0
34.98,280.0
34.99,251.0
35.0,279.0
35.01,249.0
35.02,276.0
35.03,290.0
35.04,329.0
35.05,336.0
35.06,324.0
35.07,342.0
35.08,401.0
35.09,381.0
35.1,455.0
35.11,476.0
35.12,573.0
35.13,608.0
35.14,765.0
35.15,909.0
35.16,974.0
35.17,1032.0
35.18,961.0
35.19,828.0
35.2,686.0
35.21,683.0
35.22,622.0
35.23,600.0
35.24,669.0
35.25,689.0
35.26,668.0
35.27,662.0
35.28,557.0
35.29,454.0
35.3,422.0
35.31,365.0
35.32,362.0
35.33,349.0
35.34,307.0
35.35,322.0
35.36,288.0
35.37,293.0
35.38,290.0
35.39,221.0
35.4,285.0
35.41,238.0
35.42,231.0
35.43,240.0
35.44,241.0
35.45,227.0
35.46,228.0
35.47,264.0
35.48,253.0
35.49,279.0
35.5,245.0
35.51,237.0
35.52,256.0
35.53,224.0
35.54,232.0
35.55,238.0
35.56,244.0
35.57,200.0
35.58,229.0
35.59,229.0
35.6,224.0
35.61,203.0
35.62,236.0
35.63,207.0
35.64,228.0
35.65,217.0
35.66,251.0
35.67,219.0
35.68,243.0
35.69,203.0
35.7,220.0
35.71,223.0
35.72,205.0
35.73,198.0
35.74,234.0
35.75,233.0
35.76,230.0
35.77,209.0
35.78,225.0
35.79,223.0
35.8,192.0
35.81,245.0
35.82,206.0
35.83,211.0
35.84,210.0
35.85,204.0
35.86,250.0
35.87,208.0
35.88,219.0
35.89,247.0
35.9,231.0
35.91,200.0
35.92,225.0
35.93,212.0
35.94,210.0
35.95,229.0
35.96,220.0
35.97,214.0
35.98,209.0
35.99,221.0
36.0,230.0
36.01,209.0
36.02,193.0
36.03,235.0
36.04,191.0
36.05,228.0
36.06,221.0
36.07,185.0
36.08,226.0
36.09,218.0
36.1,215.0
36.11,228.0
36.12,247.0
36.13,219.0
36.14,194.0
36.15,213.0
36.16,198.0
36.17,215.0
36.18,199.0
36.19,223.0
36.2,202.0
36.21,257.0
36.22,224.0
36.23,212.0
36.24,223.0
36.25,209.0
36.26,216.0
36.27,191.0
36.28,206.0
36.29,217.0
36.3,199.0
36.31,199.0
36.32,217.0
36.33,206.0
36.34,211.0
36.35,218.0
36.36,190.0
36.37,236.0
36.38,210.0
36.39,216.0
36.4,222.0
36.41,212.0
36.42,204.0
36.43,190.0
36.44,227.0
36.45,174.0
36.46,187.0
36.47,220.0
36.48,215.0
36.49,208.0
36.5,196.0
36.51,209.0
36.52,198.0
36.53,191.0
36.54,214.0
36.55,228.0
36.56,198.0
36.57,197.0
36.58,211.0
36.59,217.0
36.6,208.0
36.61,211.0
36.62,220.0
36.63,213.0
36.64,234.0
36.65,213.0
36.66,217.0
36.67,201.0
36.68,232.0
36.69,202.0
36.7,266.0
36.71,227.0
36.72,241.0
36.73,209.0
36.74,267.0
36.75,234.0
36.76,263.0
36.77,254.0
36.78,289.0
36.79,288.0
36.8,254.0
36.81,244.0
36.82,260.0
36.83,220.0
36.84,253.0
36.85,227.0
36.86,246.0
36.87,268.0
36.88,245.0
36.89,217.0
36.9,254.0
36.91,249.0
36.92,205.0
36.93,230.0
36.94,198.0
36.95,220.0
36.96,200.0
36.97,211.0
36.98,216.0
36.99,211.0
37.0,202.0
37.01,198.0
37.02,235.0
37.03,210.0
37.04,198.0
37.05,204.0
37.06,223.0
37.07,211.0
37.08,177.0
37.09,208.0
37.1,190.0
37.11,202.0
37.12,200.0
37.13,217.0
37.14,201.0
37.15,213.0
37.16,217.0
37.17,205.0
37.18,236.0
37.19,220.0
37.2,203.0
37.21,222.0
37.22,212.0
37.23,198.0
37.24,191.0
37.25,193.0
37.26,203.0
37.27,209.0
37.28,176.0
37.29,242.0
37.3,244.0
37.31,196.0
37.32,268.0
37.33,216.0
37.34,212.0
37.35,222.0
37.36,232.0
37.37,195.0
37.38,204.0
37.39,231.0
37.4,235.0
37.41,210.0
37.42,185.0
37.43,192.0
37.44,226.0
37.45,200.0
37.46,222.0
37.47,208.0
37.48,201.0
37.49,227.0
37.5,243.0
37.51,217.0
37.52,213.0
37.53,191.0
37.54,236.0
37.55,209.0
37.56,220.0
37.57,207.0
37.58,214.0
37.59,211.0
37.6,203.0
37.61,222.0
37.62,210.0
37.63,228.0
37.64,200.0
37.65,223.0
37.66,225.0
37.67,237.0
37.68,239.0
37.69,210.0
37.7,221.0
37.71,222.0
37.72,249.0
37.73,196.0
37.74,213.0
37.75,202.0
37.76,176.0
37.77,218.0
37.78,192.0
37.79,241.0
37.8,216.0
37.81,224.0
37.82,204.0
37.83,211.0
37.84,234.0
37.85,223.0
37.86,229.0
37.87,211.0
37.88,202.0
37.89,230.0
37.9,229.0
37.91,227.0
37.92,218.0
37.93,222.0
37.94,224.0
37.95,216.0
37.96,222.0
37.97,226.0
37.98,208.0
37.99,205.0
38.0,185.0
38.01,222.0
38.02,219.0
38.03,222.0
38.04,233.0
38.05,227.0
38.06,176.0
38.07,169.0
38.08,207.0
38.09,183.0
38.1,198.0
38.11,216.0
38.12,223.0
38.13,205.0
38.14,201.0
38.15,246.0
38.16,238.0
38.17,232.0
38.18,195.0
38.19,208.0
38.2,198.0
38.21,221.0
38.22,211.0
38.23,226.0
38.24,211.0
38.25,182.0
38.26,241.0
38.27,214.0
38.28,206.0
38.29,211.0
38.3,233.0
38.31,222.0
38.32,222.0
38.33,211.0
38.34,208.0
38.35,226.0
38.36,226.0
38.37,237.0
38.38,220.0
38.39,232.0
38.4,194.0
38.41,219.0
38.42,238.0
38.43,203.0
38.44,236.0
38.45,203.0
38.46,218.0
38.47,210.0
38.48,207.0
38.49,237.0
38.5,219.0
38.51,190.0
38.52,197.0
38.53,200.0
38.54,227.0
38.55,223.0
38.56,219.0
38.57,209.0
38.58,208.0
38.59,225.0
38.6,236.0
38.61,184.0
38.62,206.0
38.63,224.0
38.64,184.0
38.65,231.0
38.66,211.0
38.67,188.0
38.68,236.0
38.69,200.0
38.7,214.0
38.71,221.0
38.72,220.0
38.73,224.0
38.74,242.0
38.75,207.0
38.76,222.0
38.77,215.0
38.78,231.0
38.79,219.0
38.8,204.0
38.81,238.0
38.82,224.0
38.83,217.0
38.84,220.0
38.85,219.0
38.86,182.0
38.87,210.0
38.88,224.0
38.89,200.0
38.9,212.0
38.91,228.0
38.92,206.0
38.93,230.0
38.94,217.0
38.95,251.0
38.96,211.0
38.97,225.0
38.98,209.0
38.99,267.0
39.0,185.0
39.01,203.0
39.02,214.0
39.03,220.0
39.04,197.0
39.05,205.0
39.06,215.0
39.07,199.0
39.08,206.0
39.09,231.0
39.1,239.0
39.11,198.0
39.12,194.0
39.13,191.0
39.14,228.0
39.15,233.0
39.16,226.0
39.17,203.0
39.18,233.0
39.19,228.0
39.2,237.0
39.21,220.0
39.22,209.0
39.23,242.0
39.24,209.0
39.25,240.0
39.26,226.0
39.27,215.0
39.28,235.0
39.29,213.0
39.3,226.0
39.31,191.0
39.32,216.0
39.33,226.0
39.34,222.0
39.35,214.0
39.36,224.0
39.37,219.0
39.38,203.0
39.39,230.0
39.4,206.0
39.41,209.0
39.42,203.0
39.43,228.0
39.44,194.0
39.45,212.0
39.46,239.0
39.47,211.0
39.48,209.0
39.49,239.0
39.5,198.0
39.51,199.0
39.52,217.0
39.53,199.0
39.54,207.0
39.55,231.0
39.56,218.0
39.57,205.0
39.58,218.0
39.59,198.0
39.6,217.0
39.61,203.0
39.62,210.0
39.63,229.0
39.64,216.0
39.65,231.0
39.66,235.0
39.67,214.0
39.68,198.0
39.69,213.0
39.7,199.0
39.71,205.0
39.72,196.0
39.73,257.0
39.74,215.0
39.75,225.0
39.76,212.0
39.77,211.0
39.78,212.0
39.79,208.0
39.8,219.0
39.81,202.0
39.82,228.0
39.83,210.0
39.84,210.0
39.85,204.0
39.86,209.0
39.87,208.0
39.88,215.0
39.89,203.0
39.9,206.0
39.91,203.0
39.92,227.0
39.93,201.0
39.94,225.0
39.95,216.0
39.96,212.0
39.97,189.0
39.98,212.0
39.99,211.0
40.0,221.0
40.01,229.0
40.02,218.0
40.03,208.0
40.04,224.0
40.05,185.0
40.06,200.0
40.07,202.0
40.08,217.0
40.09,235.0
40.1,210.0
40.11,209.0
40.12,211.0
40.13,219.0
40.14,235.0
40.15,222.0
40.16,199.0
40.17,217.0
40.18,208.0
40.19,205.0
40.2,195.0
40.21,215.0
40.22,212.0
40.23,203.0
40.24,222.0
40.25,183.0
40.26,214.0
40.27,204.0
40.28,212.0
40.29,210.0
40.3,208.0
40.31,207.0
40.32,216.0
40.33,205.0
40.34,224.0
40.35,231.0
40.36,221.0
40.37,234.0
40.38,211.0
40.39,200.0
40.4,217.0
40.41,218.0
40.42,239.0
40.43,202.0
40.44,215.0
40.45,227.0
40.46,214.0
40.47,201.0
40.48,222.0
40.49,217.0
40.5,233.0
40.51,221.0
40.52,195.0
40.53,208.0
40.54,218.0
40.55,228.0
40.56,237.0
40.57,229.0
40.58,213.0
40.59,210.0
40.6,212.0
40.61,209.0
40.62,225.0
40.63,223.0
40.64,230.0
40.65,226.0
40.66,224.0
40.67,223.0
40.68,227.0
40.69,226.0
40.7,200.0
40.71,227.0
40.72,228.0
40.73,199.0
40.74,212.0
40.75,219.0
40.76,178.0
40.77,227.0
40.78,221.0
40.79,215.0
40.8,217.0
40.81,228.0
40.82,205.0
40.83,235.0
40.84,212.0
40.85,201.0
40.86,205.0
40.87,254.0
40.88,223.0
40.89,221.0
40.9,212.0
40.91,220.0
40.92,205.0
40.93,215.0
40.94,209.0
40.95,213.0
40.96,235.0
40.97,211.0
40.98,215.0
40.99,231.0
41.0,204.0
41.01,201.0
41.02,210.0
41.03,208.0
41.04,222.0
41.05,217.0
41.06,208.0
41.07,210.0
41.08,245.0
41.09,218.0
41.1,218.0
41.11,210.0
41.12,201.0
41.13,198.0
41.14,219.0
41.15,229.0
41.16,202.0
41.17,221.0
41.18,222.0
41.19,196.0
41.2,219.0
41.21,235.0
41.22,221.0
41.23,223.0
41.24,214.0
41.25,239.0
41.26,236.0
41.27,209.0
41.28,233.0
41.29,221.0
41.3,241.0
41.31,234.0
41.32,223.0
41.33,200.0
41.34,240.0
41.35,204.0
41.36,215.0
41.37,228.0
41.38,200.0
41.39,213.0
41.4,225.0
41.41,229.0
41.42,237.0
41.43,215.0
41.44,215.0
41.45,208.0
41.46,225.0
41.47,229.0
41.48,236.0
41.49,214.0
41.5,208.0
41.51,237.0
41.52,234.0
41.53,189.0
41.54,207.0
41.55,223.0
41.56,217.0
41.57,227.0
41.58,197.0
41.59,249.0
41.6,198.0
41.61,210.0
41.62,218.0
41.63,229.0
41.64,212.0
41.65,231.0
41.66,205.0
41.67,217.0
41.68,206.0
41.69,210.0
41.7,201.0
41.71,230.0
41.72,226.0
41.73,216.0
41.74,232.0
41.75,220.0
41.76,217.0
41.77,226.0
41.78,231.0
41.79,213.0
41.8,186.0
41.81,221.0
41.82,223.0
41.83,195.0
41.84,189.0
41.85,208.0
41.86,220.0
41.87,219.0
41.88,252.0
41.89,206.0
41.9,213.0
41.91,229.0
41.92,221.0
41.93,215.0
41.94,215.0
41.95,213.0
41.96,214.0
41.97,209.0
41.98,207.0
41.99,214.0
42.0,221.0
42.01,210.0
42.02,211.0
42.03,253.0
42.04,227.0
42.05,215.0
42.06,226.0
42.07,243.0
42.08,226.0
42.09,213.0
42.1,199.0
42.11,226.0
42.12,216.0
42.13,216.0
42.14,233.0
42.15,222.0
42.16,229.0
42.17,204.0
42.18,225.0
42.19,212.0
42.2,227.0
42.21,207.0
42.22,215.0
42.23,229.0
42.24,214.0
42.25,213.0
42.26,235.0
42.27,229.0
42.28,210.0
42.29,206.0
42.3,200.0
42.31,213.0
42.32,215.0
42.33,226.0
42.34,236.0
42.35,214.0
42.36,223.0
42.37,217.0
42.38,208.0
42.39,191.0
42.4,237.0
42.41,219.0
42.42,215.0
42.43,210.0
42.44,240.0
42.45,241.0
42.46,221.0
42.47,226.0
42.48,249.0
42.49,213.0
42.5,244.0
42.51,213.0
42.52,213.0
42.53,217.0
42.54,243.0
42.55,215.0
42.56,251.0
42.57,246.0
42.58,220.0
42.59,254.0
42.6,224.0
42.61,213.0
42.62,234.0
42.63,247.0
42.64,253.0
42.65,258.0
42.66,254.0
42.67,266.0
42.68,301.0
42.69,284.0
42.7,336.0
42.71,312.0
42.72,360.0
42.73,308.0
42.74,330.0
42.75,345.0
42.76,284.0
42.77,287.0
42.78,279.0
42.79,264.0
42.8,255.0
42.81,286.0
42.82,288.0
42.83,309.0
42.84,293.0
42.85,260.0
42.86,279.0
42.87,277.0
42.88,236.0
42.89,230.0
42.9,232.0
42.91,238.0
42.92,245.0
42.93,274.0
42.94,238.0
42.95,239.0
42.96,243.0
42.97,213.0
42.98,239.0
42.99,228.0
43.0,205.0
43.01,214.0
43.02,225.0
43.03,213.0
43.04,193.0
43.05,209.0
43.06,210.0
43.07,220.0
43.08,204.0
43.09,235.0
43.1,219.0
43.11,225.0
43.12,240.0
43.13,223.0
43.14,217.0
43.15,227.0
43.16,223.0
43.17,233.0
43.18,222.0
43.19,214.0
43.2,232.0
43.21,234.0
43.22,224.0
43.23,231.0
43.24,200.0
43.25,219.0
43.26,223.0
43.27,236.0
43.28,240.0
43.29,220.0
43.3,260.0
43.31,240.0
43.32,237.0
43.33,236.0
43.34,200.0
43.35,219.0
43.36,215.0
43.37,208.0
43.38,241.0
43.39,217.0
43.4,235.0
43.41,226.0
43.42,209.0
43.43,226.0
43.44,203.0
43.45,205.0
43.46,224.0
43.47,227.0
43.48,235.0
43.49,235.0
43.5,202.0
43.51,219.0
43.52,223.0
43.53,223.0
43.54,247.0
43.55,218.0
43.56,197.0
43.57,218.0
43.58,208.0
43.59,218.0
43.6,232.0
43.61,234.0
43.62,211.0
43.63,229.0
43.64,241.0
43.65,220.0
43.66,224.0
43.67,231.0
43.68,221.0
43.69,209.0
43.7,219.0
43.71,211.0
43.72,200.0
43.73,218.0
43.74,213.0
43.75,218.0
43.76,217.0
43.77,210.0
43.78,216.0
43.79,199.0
43.8,230.0
43.81,227.0
43.82,214.0
43.83,267.0
43.84,208.0
43.85,206.0
43.86,210.0
43.87,227.0
43.88,194.0
43.89,209.0
43.9,208.0
43.91,212.0
43.92,203.0
43.93,240.0
43.94,216.0
43.95,216.0
43.96,210.0
43.97,234.0
43.98,228.0
43.99,198.0
44.0,225.0
44.01,193.0
44.02,216.0
44.03,225.0
44.04,218.0
44.05,224.0
44.06,221.0
44.07,220.0
44.08,220.0
44.09,224.0
44.1,231.0
44.11,205.0
44.12,219.0
44.13,223.0
44.14,223.0
44.15,206.0
44.16,191.0
44.17,225.0
44.18,226.0
44.19,222.0
44.2,248.0
44.21,227.0
44.22,216.0
44.23,222.0
44.24,230.0
44.25,235.0
44.26,227.0
44.27,223.0
44.28,231.0
44.29,210.0
44.3,223.0
44.31,210.0
44.32,223.0
44.33,198.0
44.34,235.0
44.35,242.0
44.36,229.0
44.37,215.0
44.38,241.0
44.39,219.0
44.4,196.0
44.41,230.0
44.42,216.0
44.43,196.0
44.44,220.0
44.45,239.0
44.46,210.0
44.47,219.0
44.48,234.0
44.49,226.0
44.5,212.0
44.51,195.0
44.52,218.0
44.53,214.0
44.54,227.0
44.55,206.0
44.56,211.0
44.57,208.0
44.58,198.0
44.59,227.0
44.6,226.0
44.61,235.0
44.62,209.0
44.63,247.0
44.64,227.0
44.65,220.0
44.66,221.0
44.67,224.0
44.68,229.0
44.69,225.0
44.7,220.0
44.71,213.0
44.72,234.0
44.73,191.0
44.74,218.0
44.75,194.0
44.76,219.0
44.77,212.0
44.78,225.0
44.79,221.0
44.8,231.0
44.81,198.0
44.82,210.0
44.83,194.0
44.84,220.0
44.85,227.0
44.86,209.0
44.87,226.0
44.88,216.0
44.89,192.0
44.9,201.0
44.91,201.0
44.92,220.0
44.93,193.0
44.94,210.0
44.95,223.0
44.96,216.0
44.97,215.0
44.98,216.0
44.99,192.0
45.0,214.0
45.01,224.0
45.02,215.0
45.03,212.0
45.04,219.0
45.05,231.0
45.06,225.0
45.07,206.0
45.08,204.0
45.09,211.0
45.1,221.0
45.11,232.0
45.12,239.0
45.13,212.0
45.14,213.0
45.15,219.0
45.16,191.0
45.17,235.0
45.18,215.0
45.19,213.0
45.2,210.0
45.21,216.0
45.22,226.0
45.23,195.0
45.24,219.0
45.25,216.0
45.26,229.0
45.27,199.0
45.28,245.0
45.29,205.0
45.3,223.0
45.31,197.0
45.32,233.0
45.33,225.0
45.34,223.0
45.35,240.0
45.36,232.0
45.37,224.0
45.38,184.0
45.39,184.0
45.4,199.0
45.41,216.0
45.42,202.0
45.43,204.0
45.44,209.0
45.45,231.0
45.46,199.0
45.47,202.0
45.48,252.0
45.49,213.0
45.5,209.0
45.51,216.0
45.52,197.0
45.53,215.0
45.54,203.0
45.55,205.0
45.56,223.0
45.57,184.0
45.58,216.0
45.59,218.0
45.6,222.0
45.61,228.0
45.62,201.0
45.63,213.0
45.64,226.0
45.65,210.0
45.66,242.0
45.67,234.0
45.68,225.0
45.69,204.0
45.7,237.0
45.71,209.0
45.72,202.0
45.73,210.0
45.74,206.0
45.75,226.0
45.76,212.0
45.77,216.0
45.78,242.0
45.79,207.0
45.8,237.0
45.81,216.0
45.82,226.0
45.83,219.0
45.84,213.0
45.85,232.0
45.86,205.0
45.87,238.0
45.88,233.0
45.89,214.0
45.9,208.0
45.91,210.0
45.92,208.0
45.93,205.0
45.94,203.0
45.95,239.0
45.96,225.0
45.97,206.0
45.98,188.0
45.99,217.0
46.0,230.0
46.01,206.0
46.02,202.0
46.03,232.0
46.04,207.0
46.05,230.0
46.06,203.0
46.07,235.0
46.08,225.0
46.09,222.0
46.1,245.0
46.11,238.0
46.12,222.0
46.13,208.0
46.14,212.0
46.15,211.0
46.16,220.0
46.17,240.0
46.18,243.0
46.19,196.0
46.2,243.0
46.21,234.0
46.22,207.0
46.23,221.0
46.24,200.0
46.25,218.0
46.26,198.0
46.27,205.0
46.28,234.0
46.29,232.0
46.3,209.0
46.31,229.0
46.32,212.0
46.33,240.0
46.34,221.0
46.35,221.0
46.36,253.0
46.37,219.0
46.38,207.0
46.39,221.0
46.4,228.0
46.41,234.0
46.42,218.0
46.43,203.0
46.44,222.0
46.45,209.0
46.46,211.0
46.47,222.0
46.48,229.0
46.49,206.0
46.5,228.0
46.51,214.0
46.52,214.0
46.53,208.0
46.54,221.0
46.55,254.0
46.56,248.0
46.57,231.0
46.58,221.0
46.59,236.0
46.6,210.0
46.61,223.0
46.62,215.0
46.63,203.0
46.64,245.0
46.65,240.0
46.66,196.0
46.67,210.0
46.68,186.0
46.69,195.0
46.7,223.0
46.71,195.0
46.72,231.0
46.73,206.0
46.74,198.0
46.75,214.0
46.76,237.0
46.77,247.0
46.78,240.0
46.79,200.0
46.8,228.0
46.81,222.0
46.82,206.0
46.83,192.0
46.84,206.0
46.85,240.0
46.86,230.0
46.87,217.0
46.88,201.0
46.89,209.0
46.9,215.0
46.91,224.0
46.92,236.0
46.93,191.0
46.94,226.0
46.95,208.0
46.96,212.0
46.97,211.0
46.98,233.0
46.99,210.0
47.0,234.0
47.01,195.0
47.02,216.0
47.03,240.0
47.04,198.0
47.05,215.0
47.06,226.0
47.07,212.0
47.08,224.0
47.09,225.0
47.1,213.0
47.11,224.0
47.12,214.0
47.13,236.0
47.14,231.0
47.15,216.0
47.16,214.0
47.17,226.0
47.18,220.0
47.19,206.0
47.2,223.0
47.21,208.0
47.22,212.0
47.23,221.0
47.24,207.0
47.25,216.0
47.26,238.0
47.27,215.0
47.28,240.0
47.29,212.0
47.3,217.0
47.31,204.0
47.32,224.0
47.33,220.0
47.34,198.0
47.35,244.0
47.36,209.0
47.37,195.0
47.38,223.0
47.39,233.0
47.4,215.0
47.41,213.0
47.42,230.0
47.43,225.0
47.44,201.0
47.45,220.0
47.46,227.0
47.47,207.0
47.48,225.0
47.49,196.0
47.5,241.0
47.51,242.0
47.52,227.0
47.53,229.0
47.54,230.0
47.55,241.0
47.56,203.0
47.57,215.0
47.58,207.0
47.59,225.0
47.6,215.0
47.61,224.0
47.62,219.0
47.63,186.0
47.64,214.0
47.65,222.0
47.66,209.0
47.67,245.0
47.68,206.0
47.69,230.0
47.7,215.0
47.71,215.0
47.72,208.0
47.73,238.0
47.74,219.0
47.75,204.0
47.76,205.0
47.77,197.0
47.78,248.0
47.79,211.0
47.8,227.0
47.81,227.0
47.82,239.0
47.83,196.0
47.84,199.0
47.85,206.0
47.86,228.0
47.87,201.0
47.88,215.0
47.89,217.0
47.9,232.0
47.91,233.0
47.92,229.0
47.93,209.0
47.94,212.0
47.95,203.0
47.96,213.0
47.97,234.0
47.98,188.0
47.99,215.0
48.0,240.0
48.01,220.0
48.02,196.0
48.03,217.0
48.04,230.0
48.05,197.0
48.06,242.0
48.07,207.0
48.08,205.0
48.09,218.0
48.1,218.0
48.11,182.0
48.12,239.0
48.13,214.0
48.14,209.0
48.15,234.0
48.16,203.0
48.17,233.0
48.18,186.0
48.19,249.0
48.2,233.0
48.21,217.0
48.22,213.0
48.23,211.0
48.24,210.0
48.25,205.0
48.26,193.0
48.27,223.0
48.28,242.0
48.29,199.0
48.3,228.0
48.31,204.0
48.32,222.0
48.33,223.0
48.34,212.0
48.35,188.0
48.36,210.0
48.37,226.0
48.38,209.0
48.39,215.0
48.4,209.0
48.41,241.0
48.42,195.0
48.43,194.0
48.44,214.0
48.45,202.0
48.46,240.0
48.47,205.0
48.48,207.0
48.49,224.0
48.5,215.0
48.51,205.0
48.52,240.0
48.53,218.0
48.54,233.0
48.55,222.0
48.56,216.0
48.57,237.0
48.58,208.0
48.59,211.0
48.6,232.0
48.61,244.0
48.62,221.0
48.63,211.0
48.64,229.0
48.65,230.0
48.66,211.0
48.67,212.0
48.68,213.0
48.69,216.0
48.7,221.0
48.71,206.0
48.72,188.0
48.73,256.0
48.74,268.0
48.75,210.0
48.76,247.0
48.77,230.0
48.78,204.0
48.79,196.0
48.8,236.0
48.81,221.0
48.82,222.0
48.83,225.0
48.84,197.0
48.85,214.0
48.86,217.0
48.87,214.0
48.88,195.0
48.89,210.0
48.9,241.0
48.91,234.0
48.92,217.0
48.93,209.0
48.94,232.0
48.95,211.0
48.96,222.0
48.97,226.0
48.98,217.0
48.99,207.0
49.0,213.0
49.01,198.0
49.02,226.0
49.03,191.0
49.04,217.0
49.05,222.0
49.06,219.0
49.07,231.0
49.08,210.0
49.09,216.0
49.1,209.0
49.11,211.0
49.12,244.0
49.13,226.0
49.14,218.0
49.15,223.0
49.16,236.0
49.17,221.0
49.18,235.0
49.19,224.0
49.2,211.0
49.21,213.0
49.22,220.0
49.23,213.0
49.24,236.0
49.25,200.0
49.26,213.0
49.27,245.0
49.28,232.0
49.29,246.0
49.3,230.0
49.31,202.0
49.32,234.0
49.33,228.0
49.34,219.0
49.35,219.0
49.36,220.0
49.37,222.0
49.38,221.0
49.39,229.0
49.4,215.0
49.41,208.0
49.42,204.0
49.43,206.0
49.44,244.0
49.45,202.0
49.46,213.0
49.47,212.0
49.48,228.0
49.49,236.0
49.5,208.0
49.51,204.0
49.52,222.0
49.53,211.0
49.54,237.0
49.55,228.0
49.56,224.0
49.57,202.0
49.58,211.0
49.59,225.0
49.6,214.0
49.61,203.0
49.62,244.0
49.63,215.0
49.64,207.0
49.65,207.0
49.66,235.0
49.67,233.0
49.68,220.0
49.69,232.0
49.7,220.0
49.71,230.0
49.72,202.0
49.73,227.0
49.74,216.0
49.75,225.0
49.76,227.0
49.77,224.0
49.78,220.0
49.79,231.0
49.8,238.0
49.81,226.0
49.82,217.0
49.83,217.0
49.84,220.0
49.85,216.0
49.86,211.0
49.87,217.0
49.88,220.0
49.89,214.0
49.9,213.0
49.91,220.0
49.92,208.0
49.93,230.0
49.94,241.0
49.95,245.0
49.96,222.0
49.97,226.0
49.98,226.0
49.99,238.0
50.0,224.0
50.01,226.0
50.02,239.0
50.03,210.0
50.04,194.0
50.05,234.0
50.06,217.0
50.07,240.0
50.08,222.0
50.09,266.0
50.1,215.0
50.11,205.0
50.12,235.0
50.13,222.0
50.14,252.0
50.15,206.0
50.16,219.0
50.17,199.0
50.18,237.0
50.19,211.0
50.2,242.0
50.21,236.0
50.22,229.0
50.23,256.0
50.24,236.0
50.25,217.0
50.26,233.0
50.27,228.0
50.28,207.0
50.29,221.0
50.3,249.0
50.31,204.0
50.32,232.0
50.33,230.0
50.34,217.0
50.35,227.0
50.36,216.0
50.37,221.0
50.38,254.0
50.39,222.0
50.4,234.0
50.41,232.0
50.42,235.0
50.43,214.0
50.44,198.0
50.45,203.0
50.46,222.0
50.47,213.0
50.48,207.0
50.49,232.0
50.5,231.0
50.51,223.0
50.52,218.0
50.53,217.0
50.54,229.0
50.55,209.0
50.56,207.0
50.57,216.0
50.58,201.0
50.59,204.0
50.6,211.0
50.61,214.0
50.62,210.0
50.63,224.0
50.64,211.0
50.65,241.0
50.66,219.0
50.67,260.0
50.68,226.0
50.69,202.0
50.7,208.0
50.71,214.0
50.72,239.0
50.73,215.0
50.74,219.0
50.75,223.0
50.76,212.0
50.77,192.0
50.78,212.0
50.79,210.0
50.8,186.0
50.81,216.0
50.82,220.0
50.83,222.0
50.84,235.0
50.85,228.0
50.86,216.0
50.87,208.0
50.88,227.0
50.89,232.0
50.9,264.0
50.91,234.0
50.92,212.0
50.93,217.0
50.94,220.0
50.95,212.0
50.96,242.0
50.97,238.0
50.98,227.0
50.99,230.0
51.0,233.0
51.01,219.0
51.02,228.0
51.03,199.0
51.04,206.0
51.05,209.0
51.06,220.0
51.07,218.0
51.08,250.0
51.09,230.0
51.1,232.0
51.11,218.0
51.12,179.0
51.13,219.0
51.14,231.0
51.15,248.0
51.16,229.0
51.17,231.0
51.18,217.0
51.19,205.0
51.2,198.0
51.21,266.0
51.22,222.0
51.23,232.0
51.24,225.0
51.25,217.0
51.26,237.0
51.27,223.0
51.28,200.0
51.29,224.0
51.3,216.0
51.31,216.0
51.32,210.0
51.33,203.0
51.34,210.0
51.35,251.0
51.36,217.0
51.37,214.0
51.38,219.0
51.39,234.0
51.4,221.0
51.41,213.0
51.42,218.0
51.43,232.0
51.44,237.0
51.45,245.0
51.46,217.0
51.47,211.0
51.48,217.0
51.49,202.0
51.5,224.0
51.51,238.0
51.52,259.0
51.53,238.0
51.54,216.0
51.55,191.0
51.56,232.0
51.57,207.0
51.58,209.0
51.59,226.0
51.6,233.0
51.61,237.0
51.62,232.0
51.63,211.0
51.64,213.0
51.65,238.0
51.66,246.0
51.67,206.0
51.68,210.0
51.69,231.0
51.7,217.0
51.71,195.0
51.72,226.0
51.73,220.0
51.74,208.0
51.75,207.0
51.76,211.0
51.77,220.0
51.78,260.0
51.79,213.0
51.8,248.0
51.81,213.0
51.82,213.0
51.83,233.0
51.84,218.0
51.85,195.0
51.86,214.0
51.87,184.0
51.88,202.0
51.89,222.0
51.9,227.0
51.91,213.0
51.92,252.0
51.93,218.0
51.94,211.0
51.95,243.0
51.96,233.0
51.97,237.0
51.98,238.0
51.99,237.0
52.0,242.0
52.01,206.0
52.02,188.0
52.03,221.0
52.04,216.0
52.05,242.0
52.06,230.0
52.07,238.0
52.08,206.0
52.09,249.0
52.1,207.0
52.11,219.0
52.12,206.0
52.13,238.0
52.14,207.0
52.15,213.0
52.16,214.0
52.17,211.0
52.18,231.0
52.19,214.0
52.2,209.0
52.21,211.0
52.22,247.0
52.23,205.0
52.24,216.0
52.25,233.0
52.26,192.0
52.27,226.0
52.28,233.0
52.29,239.0
52.3,230.0
52.31,259.0
52.32,217.0
52.33,219.0
52.34,225.0
52.35,203.0
52.36,206.0
52.37,212.0
52.38,250.0
52.39,223.0
52.4,244.0
52.41,210.0
52.42,226.0
52.43,219.0
52.44,208.0
52.45,200.0
52.46,257.0
52.47,225.0
52.48,219.0
52.49,230.0
52.5,198.0
52.51,229.0
52.52,185.0
52.53,231.0
52.54,222.0
52.55,216.0
52.56,215.0
52.57,225.0
52.58,210.0
52.59,223.0
52.6,227.0
52.61,204.0
52.62,206.0
52.63,238.0
52.64,232.0
52.65,218.0
52.66,211.0
52.67,230.0
52.68,218.0
52.69,229.0
52.7,248.0
52.71,243.0
52.72,252.0
52.73,228.0
52.74,203.0
52.75,217.0
52.76,241.0
52.77,210.0
52.78,219.0
52.79,244.0
52.8,239.0
52.81,207.0
52.82,218.0
52.83,222.0
52.84,222.0
52.85,237.0
52.86,217.0
52.87,247.0
52.88,248.0
52.89,222.0
52.9,187.0
52.91,242.0
52.92,240.0
52.93,271.0
52.94,254.0
52.95,293.0
52.96,302.0
52.97,299.0
52.98,325.0
52.99,312.0
53.0,270.0
53.01,282.0
53.02,283.0
53.03,255.0
53.04,236.0
53.05,249.0
53.06,254.0
53.07,255.0
53.08,232.0
53.09,275.0
53.1,247.0
53.11,250.0
53.12,291.0
53.13,248.0
53.14,230.0
53.15,255.0
53.16,232.0
53.17,253.0
53.18,232.0
53.19,220.0
53.2,228.0
53.21,214.0
53.22,210.0
53.23,217.0
53.24,227.0
53.25,211.0
53.26,242.0
53.27,231.0
53.28,211.0
53.29,230.0
53.3,219.0
53.31,236.0
53.32,223.0
53.33,216.0
53.34,250.0
53.35,229.0
53.36,217.0
53.37,222.0
53.38,234.0
53.39,218.0
53.4,218.0
53.41,212.0
53.42,234.0
53.43,194.0
53.44,220.0
53.45,212.0
53.46,253.0
53.47,207.0
53.48,201.0
53.49,241.0
53.5,217.0
53.51,237.0
53.52,255.0
53.53,234.0
53.54,198.0
53.55,222.0
53.56,206.0
53.57,202.0
53.58,208.0
53.59,217.0
53.6,226.0
53.61,222.0
53.62,235.0
53.63,208.0
53.64,209.0
53.65,246.0
53.66,221.0
53.67,205.0
53.68,186.0
53.69,206.0
53.7,221.0
53.71,225.0
53.72,231.0
53.73,199.0
53.74,227.0
53.75,213.0
53.76,236.0
53.77,239.0
53.78,210.0
53.79,203.0
53.8,241.0
53.81,238.0
53.82,207.0
53.83,208.0
53.84,225.0
53.85,193.0
53.86,217.0
53.87,202.0
53.88,227.0
53.89,190.0
53.9,218.0
53.91,235.0
53.92,194.0
53.93,214.0
53.94,225.0
53.95,211.0
53.96,240.0
53.97,211.0
53.98,216.0
53.99,228.0
54.0,247.0
54.01,232.0
54.02,219.0
54.03,259.0
54.04,234.0
54.05,247.0
54.06,201.0
54.07,218.0
54.08,236.0
54.09,230.0
54.1,223.0
54.11,213.0
54.12,200.0
54.13,220.0
54.14,212.0
54.15,218.0
54.16,214.0
54.17,225.0
54.18,212.0
54.19,225.0
54.2,237.0
54.21,196.0
54.22,211.0
54.23,228.0
54.24,200.0
54.25,224.0
54.26,202.0
54.27,219.0
54.28,214.0
54.29,233.0
54.3,228.0
54.31,215.0
54.32,213.0
54.33,214.0
54.34,244.0
54.35,206.0
54.36,235.0
54.37,205.0
54.38,199.0
54.39,226.0
54.4,213.0
54.41,233.0
54.42,230.0
54.43,249.0
54.44,226.0
54.45,226.0
54.46,197.0
54.47,200.0
54.48,219.0
54.49,237.0
54.5,234.0
54.51,219.0
54.52,213.0
54.53,222.0
54.54,226.0
54.55,238.0
54.56,214.0
54.57,223.0
54.58,230.0
54.59,215.0
54.6,220.0
54.61,240.0
54.62,246.0
54.63,240.0
54.64,237.0
54.65,221.0
54.66,242.0
54.67,219.0
54.68,245.0
54.69,222.0
54.7,225.0
54.71,217.0
54.72,245.0
54.73,237.0
54.74,207.0
54.75,216.0
54.76,201.0
54.77,224.0
54.78,220.0
54.79,220.0
54.8,212.0
54.81,239.0
54.82,217.0
54.83,233.0
54.84,206.0
54.85,228.0
54.86,240.0
54.87,213.0
54.88,209.0
54.89,241.0
54.9,230.0
54.91,234.0
54.92,212.0
54.93,239.0
54.94,203.0
54.95,216.0
54.96,215.0
54.97,196.0
54.98,239.0
54.99,214.0
55.0,227.0
55.01,234.0
55.02,239.0
55.03,215.0
55.04,236.0
55.05,209.0
55.06,227.0
55.07,215.0
55.08,223.0
55.09,219.0
55.1,230.0
55.11,222.0
55.12,230.0
55.13,221.0
55.14,232.0
55.15,208.0
55.16,215.0
55.17,237.0
55.18,232.0
55.19,212.0
55.2,249.0
55.21,231.0
55.22,230.0
55.23,211.0
55.24,228.0
55.25,202.0
55.26,230.0
55.27,250.0
55.28,200.0
55.29,231.0
55.3,241.0
55.31,208.0
55.32,225.0
55.33,227.0
55.34,235.0
55.35,225.0
55.36,207.0
55.37,236.0
55.38,258.0
55.39,231.0
55.4,240.0
55.41,221.0
55.42,199.0
55.43,211.0
55.44,204.0
55.45,225.0
55.46,242.0
55.47,212.0
55.48,200.0
55.49,217.0
55.5,211.0
55.51,228.0
55.52,238.0
55.53,219.0
55.54,216.0
55.55,223.0
55.56,221.0
55.57,212.0
55.58,239.0
55.59,215.0
55.6,210.0
55.61,219.0
55.62,209.0
55.63,200.0
55.64,247.0
55.65,244.0
55.66,233.0
55.67,228.0
55.68,211.0
55.69,220.0
55.7,217.0
55.71,208.0
55.72,219.0
55.73,230.0
55.74,224.0
55.75,226.0
55.76,229.0
55.77,235.0
55.78,224.0
55.79,202.0
55.8,221.0
55.81,210.0
55.82,227.0
55.83,196.0
55.84,217.0
55.85,218.0
55.86,194.0
55.87,250.0
55.88,214.0
55.89,221.0
55.9,224.0
55.91,244.0
55.92,212.0
55.93,234.0
55.94,217.0
55.95,218.0
55.96,238.0
55.97,227.0
55.98,226.0
55.99,213.0
56.0,207.0
56.01,227.0
56.02,211.0
56.03,236.0
56.04,239.0
56.05,251.0
56.06,225.0
56.07,230.0
56.08,242.0
56.09,248.0
56.1,219.0
56.11,216.0
56.12,233.0
56.13,204.0
56.14,227.0
56.15,224.0
56.16,225.0
56.17,235.0
56.18,237.0
56.19,256.0
56.2,218.0
56.21,252.0
56.22,240.0
56.23,221.0
56.24,251.0
56.25,230.0
56.26,263.0
56.27,237.0
56.28,252.0
56.29,274.0
56.3,255.0
56.31,235.0
56.32,244.0
56.33,270.0
56.34,240.0
56.35,266.0
56.36,237.0
56.37,279.0
56.38,277.0
56.39,291.0
56.4,291.0
56.41,294.0
56.42,352.0
56.43,373.0
56.44,396.0
56.45,439.0
56.46,469.0
56.47,500.0
56.48,479.0
56.49,446.0
56.5,451.0
56.51,370.0
56.52,370.0
56.53,334.0
56.54,309.0
56.55,319.0
56.56,314.0
56.57,329.0
56.58,318.0
56.59,340.0
56.6,337.0
56.61,382.0
56.62,346.0
56.63,350.0
56.64,379.0
56.65,347.0
56.66,297.0
56.67,328.0
56.68,274.0
56.69,265.0
56.7,255.0
56.71,294.0
56.72,249.0
56.73,269.0
56.74,248.0
56.75,245.0
56.76,217.0
56.77,239.0
56.78,245.0
56.79,224.0
56.8,216.0
56.81,231.0
56.82,232.0
56.83,225.0
56.84,256.0
56.85,243.0
56.86,234.0
56.87,239.0
56.88,241.0
56.89,217.0
56.9,238.0
56.91,212.0
56.92,224.0
56.93,212.0
56.94,244.0
56.95,260.0
56.96,230.0
56.97,248.0
56.98,240.0
56.99,248.0
57.0,243.0
57.01,234.0
57.02,213.0
57.03,247.0
57.04,226.0
57.05,246.0
57.06,246.0
57.07,242.0
57.08,208.0
57.09,258.0
57.1,237.0
57.11,252.0
57.12,252.0
57.13,233.0
57.14,210.0
57.15,215.0
57.16,211.0
57.17,213.0
57.18,232.0
57.19,228.0
57.2,232.0
57.21,246.0
57.22,231.0
57.23,212.0
57.24,214.0
57.25,229.0
57.26,267.0
57.27,203.0
57.28,223.0
57.29,237.0
57.3,215.0
57.31,225.0
57.32,255.0
57.33,250.0
57.34,195.0
57.35,219.0
57.36,248.0
57.37,215.0
57.38,210.0
57.39,231.0
57.4,205.0
57.41,196.0
57.42,237.0
57.43,204.0
57.44,197.0
57.45,229.0
57.46,200.0
57.47,226.0
57.48,227.0
57.49,215.0
57.5,217.0
57.51,228.0
57.52,222.0
57.53,226.0
57.54,243.0
57.55,241.0
57.56,230.0
57.57,225.0
57.58,223.0
57.59,242.0
57.6,243.0
57.61,245.0
57.62,223.0
57.63,236.0
57.64,236.0
57.65,215.0
57.66,237.0
57.67,210.0
57.68,210.0
57.69,241.0
57.7,213.0
57.71,239.0
57.72,214.0
57.73,236.0
57.74,239.0
57.75,179.0
57.76,231.0
57.77,233.0
57.78,216.0
57.79,228.0
57.8,220.0
57.81,220.0
57.82,174.0
57.83,223.0
57.84,221.0
57.85,216.0
57.86,218.0
57.87,222.0
57.88,234.0
57.89,187.0
57.9,202.0
57.91,234.0
57.92,206.0
57.93,222.0
57.94,254.0
57.95,224.0
57.96,248.0
57.97,232.0
57.98,230.0
57.99,220.0
58.0,234.0
58.01,215.0
58.02,238.0
58.03,203.0
58.04,224.0
58.05,214.0
58.06,224.0
58.07,224.0
58.08,211.0
58.09,259.0
58.1,212.0
58.11,263.0
58.12,229.0
58.13,211.0
58.14,234.0
58.15,205.0
58.16,217.0
58.17,237.0
58.18,232.0
58.19,250.0
58.2,231.0
58.21,247.0
58.22,219.0
58.23,230.0
58.24,226.0
58.25,232.0
58.26,224.0
58.27,230.0
58.28,208.0
58.29,196.0
58.3,216.0
58.31,235.0
58.32,210.0
58.33,222.0
58.34,234.0
58.35,263.0
58.36,256.0
58.37,214.0
58.38,223.0
58.39,230.0
58.4,226.0
58.41,200.0
58.42,234.0
58.43,209.0
58.44,219.0
58.45,259.0
58.46,238.0
58.47,231.0
58.48,223.0
58.49,213.0
58.5,241.0
58.51,233.0
58.52,209.0
58.53,216.0
58.54,244.0
58.55,226.0
58.56,242.0
58.57,193.0
58.58,241.0
58.59,225.0
58.6,216.0
58.61,241.0
58.62,211.0
58.63,235.0
58.64,214.0
58.65,246.0
58.66,258.0
58.67,189.0
58.68,231.0
58.69,245.0
58.7,209.0
58.71,233.0
58.72,222.0
58.73,219.0
58.74,214.0
58.75,226.0
58.76,249.0
58.77,231.0
58.78,247.0
58.79,210.0
58.8,234.0
58.81,220.0
58.82,244.0
58.83,203.0
58.84,225.0
58.85,244.0
58.86,224.0
58.87,210.0
58.88,222.0
58.89,218.0
58.9,223.0
58.91,208.0
58.92,219.0
58.93,252.0
58.94,222.0
58.95,211.0
58.96,219.0
58.97,239.0
58.98,203.0
58.99,211.0
59.0,216.0
59.01,220.0
59.02,247.0
59.03,229.0
59.04,221.0
59.05,205.0
59.06,243.0
59.07,193.0
59.08,230.0
59.09,191.0
59.1,212.0
59.11,231.0
59.12,227.0
59.13,235.0
59.14,218.0
59.15,222.0
59.16,216.0
59.17,230.0
59.18,233.0
59.19,224.0
59.2,227.0
59.21,226.0
59.22,240.0
59.23,238.0
59.24,227.0
59.25,213.0
59.26,221.0
59.27,216.0
59.28,198.0
59.29,212.0
59.3,217.0
59.31,235.0
59.32,184.0
59.33,243.0
59.34,230.0
59.35,229.0
59.36,219.0
59.37,204.0
59.38,224.0
59.39,251.0
59.4,215.0
59.41,235.0
59.42,220.0
59.43,252.0
59.44,221.0
59.45,213.0
59.46,224.0
59.47,231.0
59.48,243.0
59.49,224.0
59.5,236.0
59.51,236.0
59.52,234.0
59.53,224.0
59.54,209.0
59.55,247.0
59.56,205.0
59.57,225.0
59.58,220.0
59.59,226.0
59.6,199.0
59.61,233.0
59.62,207.0
59.63,229.0
59.64,226.0
59.65,223.0
59.66,249.0
59.67,239.0
59.68,233.0
59.69,218.0
59.7,206.0
59.71,229.0
59.72,204.0
59.73,236.0
59.74,222.0
59.75,205.0
59.76,240.0
59.77,227.0
59.78,222.0
59.79,211.0
59.8,218.0
59.81,226.0
59.82,213.0
59.83,252.0
59.84,205.0
59.85,211.0
59.86,231.0
59.87,248.0
59.88,204.0
59.89,213.0
59.9,237.0
59.91,208.0
59.92,217.0
59.93,226.0
59.94,226.0
59.95,228.0
59.96,212.0
59.97,241.0
59.98,217.0
59.99,236.0
60.0,233.0
60.01,200.0
60.02,237.0
60.03,195.0
60.04,238.0
60.05,239.0
60.06,225.0
60.07,226.0
60.08,204.0
60.09,213.0
60.1,209.0
60.11,232.0
60.12,218.0
60.13,223.0
60.14,230.0
60.15,220.0
60.16,223.0
60.17,220.0
60.18,200.0
60.19,257.0
60.2,219.0
60.21,232.0
60.22,205.0
60.23,210.0
60.24,224.0
60.25,237.0
60.26,237.0
60.27,227.0
60.28,238.0
60.29,233.0
60.3,246.0
60.31,248.0
60.32,226.0
60.33,244.0
60.34,212.0
60.35,220.0
60.36,233.0
60.37,228.0
60.38,224.0
60.39,222.0
60.4,248.0
60.41,228.0
60.42,238.0
60.43,216.0
60.44,221.0
60.45,215.0
60.46,238.0
60.47,217.0
60.48,210.0
60.49,230.0
60.5,217.0
60.51,245.0
60.52,223.0
60.53,224.0
60.54,236.0
60.55,204.0
60.56,236.0
60.57,214.0
60.58,220.0
60.59,235.0
60.6,246.0
60.61,226.0
60.62,238.0
60.63,211.0
60.64,217.0
60.65,208.0
60.66,206.0
60.67,233.0
60.68,184.0
60.69,197.0
60.7,210.0
60.71,239.0
60.72,212.0
60.73,239.0
60.74,221.0
60.75,222.0
60.76,228.0
60.77,222.0
60.78,225.0
60.79,234.0
60.8,215.0
60.81,224.0
60.82,224.0
60.83,228.0
60.84,212.0
60.85,198.0
60.86,229.0
60.87,218.0
60.88,217.0
60.89,231.0
60.9,205.0
60.91,211.0
60.92,199.0
60.93,224.0
60.94,232.0
60.95,236.0
60.96,219.0
60.97,224.0
60.98,220.0
60.99,259.0
61.0,246.0
61.01,220.0
61.02,222.0
61.03,221.0
61.04,215.0
61.05,232.0
61.06,228.0
61.07,208.0
61.08,241.0
61.09,249.0
61.1,222.0
61.11,218.0
61.12,246.0
61.13,229.0
61.14,263.0
61.15,221.0
61.16,241.0
61.17,210.0
61.18,213.0
61.19,233.0
61.2,204.0
61.21,212.0
61.22,212.0
61.23,226.0
61.24,222.0
61.25,210.0
61.26,208.0
61.27,228.0
61.28,243.0
61.29,200.0
61.3,233.0
61.31,264.0
61.32,208.0
61.33,252.0
61.34,267.0
61.35,228.0
61.36,268.0
61.37,247.0
61.38,228.0
61.39,277.0
61.4,246.0
61.41,227.0
61.42,217.0
61.43,231.0
61.44,214.0
61.45,245.0
61.46,206.0
61.47,241.0
61.48,239.0
61.49,224.0
61.5,219.0
61.51,220.0
61.52,260.0
61.53,226.0
61.54,227.0
61.55,236.0
61.56,253.0
61.57,243.0
61.58,250.0
61.59,211.0
61.6,235.0
61.61,235.0
61.62,242.0
61.63,224.0
61.64,235.0
61.65,238.0
61.66,226.0
61.67,234.0
61.68,267.0
61.69,249.0
61.7,242.0
61.71,260.0
61.72,256.0
61.73,227.0
61.74,234.0
61.75,229.0
61.76,216.0
61.77,240.0
61.78,230.0
61.79,238.0
61.8,250.0
61.81,261.0
61.82,277.0
61.83,241.0
61.84,250.0
61.85,242.0
61.86,256.0
61.87,291.0
61.88,268.0
61.89,279.0
61.9,256.0
61.91,314.0
61.92,279.0
61.93,304.0
61.94,349.0
61.95,356.0
61.96,359.0
61.97,422.0
61.98,452.0
61.99,449.0
62.0,450.0
62.01,457.0
62.02,426.0
62.03,376.0
62.04,338.0
62.05,296.0
62.06,316.0
62.07,315.0
62.08,299.0
62.09,310.0
62.1,304.0
62.11,306.0
62.12,318.0
62.13,325.0
62.14,344.0
62.15,325.0
62.16,364.0
62.17,326.0
62.18,335.0
62.19,338.0
62.2,336.0
62.21,275.0
62.22,256.0
62.23,274.0
62.24,248.0
62.25,280.0
62.26,273.0
62.27,282.0
62.28,250.0
62.29,249.0
62.3,280.0
62.31,267.0
62.32,267.0
62.33,263.0
62.34,237.0
62.35,235.0
62.36,227.0
62.37,229.0
62.38,249.0
62.39,244.0
62.4,225.0
62.41,235.0
62.42,240.0
62.43,233.0
62.44,235.0
62.45,234.0
62.46,248.0
62.47,190.0
62.48,230.0
62.49,240.0
62.5,250.0
62.51,259.0
62.52,221.0
62.53,227.0
62.54,197.0
62.55,253.0
62.56,234.0
62.57,220.0
62.58,241.0
62.59,232.0
62.6,226.0
62.61,208.0
62.62,212.0
62.63,212.0
62.64,226.0
62.65,223.0
62.66,225.0
62.67,208.0
62.68,224.0
62.69,212.0
62.7,251.0
62.71,218.0
62.72,227.0
62.73,226.0
62.74,243.0
62.75,252.0
62.76,214.0
62.77,236.0
62.78,210.0
62.79,231.0
62.8,226.0
62.81,251.0
62.82,233.0
62.83,234.0
62.84,215.0
62.85,211.0
62.86,218.0
62.87,261.0
62.88,232.0
62.89,232.0
62.9,223.0
62.91,226.0
62.92,219.0
62.93,210.0
62.94,227.0
62.95,206.0
62.96,249.0
62.97,248.0
62.98,215.0
62.99,183.0
63.0,233.0
63.01,226.0
63.02,234.0
63.03,237.0
63.04,218.0
63.05,211.0
63.06,231.0
63.07,222.0
63.08,213.0
63.09,237.0
63.1,220.0
63.11,230.0
63.12,205.0
63.13,237.0
63.14,239.0
63.15,218.0
63.16,216.0
63.17,211.0
63.18,245.0
63.19,215.0
63.2,227.0
63.21,214.0
63.22,224.0
63.23,214.0
63.24,238.0
63.25,237.0
63.26,233.0
63.27,234.0
63.28,215.0
63.29,212.0
63.3,241.0
63.31,211.0
63.32,211.0
63.33,225.0
63.34,236.0
63.35,213.0
63.36,219.0
63.37,250.0
63.38,233.0
63.39,244.0
63.4,260.0
63.41,234.0
63.42,208.0
63.43,227.0
63.44,227.0
63.45,228.0
63.46,207.0
63.47,239.0
63.48,231.0
63.49,240.0
63.5,219.0
63.51,194.0
63.52,218.0
63.53,229.0
63.54,218.0
63.55,236.0
63.56,198.0
63.57,251.0
63.58,204.0
63.59,205.0
63.6,217.0
63.61,258.0
63.62,215.0
63.63,209.0
63.64,222.0
63.65,207.0
63.66,200.0
63.67,198.0
63.68,230.0
63.69,218.0
63.7,209.0
63.71,243.0
63.72,260.0
63.73,203.0
63.74,214.0
63.75,218.0
63.76,236.0
63.77,228.0
63.78,240.0
63.79,250.0
63.8,241.0
63.81,233.0
63.82,244.0
63.83,198.0
63.84,248.0
63.85,200.0
63.86,215.0
63.87,222.0
63.88,233.0
63.89,237.0
63.9,219.0
63.91,221.0
63.92,222.0
63.93,241.0
63.94,230.0
63.95,207.0
63.96,241.0
63.97,246.0
63.98,220.0
63.99,210.0
64.0,225.0
64.01,212.0
64.02,240.0
64.03,239.0
64.04,205.0
64.05,241.0
64.06,220.0
64.07,214.0
64.08,225.0
64.09,209.0
64.1,195.0
64.11,212.0
64.12,235.0
64.13,234.0
64.14,224.0
64.15,216.0
64.16,230.0
64.17,245.0
64.18,212.0
64.19,231.0
64.2,219.0
64.21,216.0
64.22,229.0
64.23,201.0
64.24,210.0
64.25,211.0
64.26,248.0
64.27,198.0
64.28,227.0
64.29,207.0
64.3,239.0
64.31,220.0
64.32,215.0
64.33,228.0
64.34,223.0
64.35,261.0
64.36,233.0
64.37,245.0
64.38,218.0
64.39,231.0
64.4,225.0
64.41,256.0
64.42,211.0
64.43,216.0
64.44,222.0
64.45,227.0
64.46,238.0
64.47,208.0
64.48,231.0
64.49,227.0
64.5,238.0
64.51,216.0
64.52,251.0
64.53,226.0
64.54,225.0
64.55,231.0
64.56,233.0
64.57,222.0
64.58,237.0
64.59,214.0
64.6,222.0
64.61,219.0
64.62,204.0
64.63,202.0
64.64,235.0
64.65,226.0
64.66,209.0
64.67,227.0
64.68,211.0
64.69,222.0
64.7,209.0
64.71,227.0
64.72,207.0
64.73,217.0
64.74,203.0
64.75,228.0
64.76,208.0
64.77,227.0
64.78,217.0
64.79,256.0
64.8,197.0
64.81,214.0
64.82,211.0
64.83,213.0
64.84,189.0
64.85,233.0
64.86,237.0
64.87,203.0
64.88,217.0
64.89,227.0
64.9,238.0
64.91,236.0
64.92,210.0
64.93,257.0
64.94,219.0
64.95,200.0
64.96,228.0
64.97,227.0
64.98,256.0
64.99,194.0
65.0,213.0
65.01,244.0
65.02,233.0
65.03,200.0
65.04,204.0
65.05,208.0
65.06,236.0
65.07,229.0
65.08,229.0
65.09,231.0
65.1,258.0
65.11,225.0
65.12,223.0
65.13,239.0
65.14,198.0
65.15,251.0
65.16,221.0
65.17,222.0
65.18,235.0
65.19,233.0
65.2,225.0
65.21,217.0
65.22,240.0
65.23,228.0
65.24,240.0
65.25,238.0
65.26,231.0
65.27,243.0
65.28,224.0
65.29,213.0
65.3,214.0
65.31,259.0
65.32,245.0
65.33,261.0
65.34,247.0
65.35,225.0
65.36,229.0
65.37,187.0
65.38,216.0
65.39,233.0
65.4,230.0
65.41,218.0
65.42,224.0
65.43,233.0
65.44,228.0
65.45,252.0
65.46,248.0
65.47,226.0
65.48,213.0
65.49,234.0
65.5,227.0
65.51,205.0
65.52,212.0
65.53,211.0
65.54,243.0
65.55,223.0
65.56,214.0
65.57,207.0
65.58,208.0
65.59,199.0
65.6,229.0
65.61,218.0
65.62,224.0
65.63,211.0
65.64,223.0
65.65,234.0
65.66,214.0
65.67,228.0
65.68,219.0
65.69,245.0
65.7,258.0
65.71,220.0
65.72,212.0
65.73,213.0
65.74,222.0
65.75,198.0
65.76,199.0
65.77,225.0
65.78,235.0
65.79,207.0
65.8,190.0
65.81,234.0
65.82,215.0
65.83,226.0
65.84,226.0
65.85,232.0
65.86,226.0
65.87,221.0
65.88,220.0
65.89,239.0
65.9,236.0
65.91,219.0
65.92,241.0
65.93,237.0
65.94,227.0
65.95,216.0
65.96,243.0
65.97,205.0
65.98,210.0
65.99,215.0
66.0,202.0
66.01,217.0
66.02,212.0
66.03,240.0
66.04,206.0
66.05,231.0
66.06,220.0
66.07,228.0
66.08,245.0
66.09,193.0
66.1,235.0
66.11,247.0
66.12,230.0
66.13,221.0
66.14,216.0
66.15,242.0
66.16,212.0
66.17,217.0
66.18,235.0
66.19,251.0
66.2,221.0
66.21,251.0
66.22,222.0
66.23,211.0
66.24,223.0
66.25,224.0
66.26,196.0
66.27,231.0
66.28,245.0
66.29,232.0
66.3,246.0
66.31,210.0
66.32,218.0
66.33,219.0
66.34,219.0
66.35,245.0
66.36,208.0
66.37,208.0
66.38,207.0
66.39,218.0
66.4,212.0
66.41,214.0
66.42,216.0
66.43,236.0
66.44,228.0
66.45,231.0
66.46,194.0
66.47,229.0
66.48,211.0
66.49,239.0
66.5,214.0
66.51,214.0
66.52,207.0
66.53,215.0
66.54,253.0
66.55,248.0
66.56,202.0
66.57,237.0
66.58,250.0
66.59,251.0
66.6,214.0
66.61,226.0
66.62,207.0
66.63,200.0
66.64,203.0
66.65,218.0
66.66,224.0
66.67,232.0
66.68,207.0
66.69,252.0
66.7,236.0
66.71,251.0
66.72,213.0
66.73,252.0
66.74,232.0
66.75,228.0
66.76,225.0
66.77,226.0
66.78,222.0
66.79,221.0
66.8,242.0
66.81,209.0
66.82,218.0
66.83,229.0
66.84,238.0
66.85,200.0
66.86,239.0
66.87,219.0
66.88,237.0
66.89,212.0
66.9,199.0
66.91,234.0
66.92,227.0
66.93,242.0
66.94,220.0
66.95,202.0
66.96,210.0
66.97,200.0
66.98,225.0
66.99,226.0
67.0,249.0
67.01,209.0
67.02,268.0
67.03,225.0
67.04,223.0
67.05,226.0
67.06,201.0
67.07,239.0
67.08,217.0
67.09,194.0
67.1,208.0
67.11,204.0
67.12,219.0
67.13,203.0
67.14,230.0
67.15,224.0
67.16,256.0
67.17,219.0
67.18,232.0
67.19,222.0
67.2,228.0
67.21,218.0
67.22,201.0
67.23,218.0
67.24,201.0
67.25,214.0
67.26,241.0
67.27,240.0
67.28,252.0
67.29,227.0
67.3,230.0
67.31,226.0
67.32,222.0
67.33,201.0
67.34,240.0
67.35,223.0
67.36,216.0
67.37,201.0
67.38,240.0
67.39,227.0
67.4,227.0
67.41,235.0
67.42,226.0
67.43,232.0
67.44,226.0
67.45,221.0
67.46,228.0
67.47,199.0
67.48,185.0
67.49,219.0
67.5,218.0
67.51,230.0
67.52,247.0
67.53,211.0
67.54,230.0
67.55,223.0
67.56,210.0
67.57,212.0
67.58,196.0
67.59,218.0
67.6,226.0
67.61,211.0
67.62,224.0
67.63,226.0
67.64,222.0
67.65,231.0
67.66,230.0
67.67,217.0
67.68,194.0
67.69,216.0
67.7,205.0
67.71,232.0
67.72,222.0
67.73,234.0
67.74,229.0
67.75,247.0
67.76,254.0
67.77,240.0
67.78,200.0
67.79,224.0
67.8,234.0
67.81,198.0
67.82,221.0
67.83,228.0
67.84,239.0
67.85,224.0
67.86,228.0
67.87,222.0
67.88,239.0
67.89,236.0
67.9,248.0
67.91,214.0
67.92,209.0
67.93,227.0
67.94,228.0
67.95,211.0
67.96,201.0
67.97,244.0
67.98,217.0
67.99,229.0
68.0,219.0
68.01,225.0
68.02,220.0
68.03,232.0
68.04,206.0
68.05,252.0
68.06,214.0
68.07,199.0
68.08,217.0
68.09,211.0
68.1,253.0
68.11,256.0
68.12,231.0
68.13,228.0
68.14,250.0
68.15,208.0
68.16,202.0
68.17,237.0
68.18,204.0
68.19,237.0
68.2,250.0
68.21,237.0
68.22,227.0
68.23,191.0
68.24,246.0
68.25,249.0
68.26,243.0
68.27,248.0
68.28,231.0
68.29,212.0
68.3,211.0
68.31,233.0
68.32,220.0
68.33,248.0
68.34,228.0
68.35,203.0
68.36,223.0
68.37,231.0
68.38,223.0
68.39,202.0
68.4,217.0
68.41,240.0
68.42,237.0
68.43,267.0
68.44,235.0
68.45,228.0
68.46,245.0
68.47,211.0
68.48,222.0
68.49,223.0
68.5,228.0
68.51,223.0
68.52,260.0
68.53,220.0
68.54,190.0
68.55,217.0
68.56,193.0
68.57,214.0
68.58,243.0
68.59,218.0
68.6,207.0
68.61,237.0
68.62,212.0
68.63,210.0
68.64,243.0
68.65,254.0
68.66,199.0
68.67,210.0
68.68,231.0
68.69,248.0
68.7,240.0
68.71,243.0
68.72,231.0
68.73,224.0
68.74,230.0
68.75,208.0
68.76,223.0
68.77,234.0
68.78,214.0
68.79,199.0
68.8,209.0
68.81,217.0
68.82,218.0
68.83,226.0
68.84,199.0
68.85,227.0
68.86,205.0
68.87,226.0
68.88,220.0
68.89,224.0
68.9,220.0
68.91,242.0
68.92,237.0
68.93,207.0
68.94,183.0
68.95,227.0
68.96,232.0
68.97,225.0
68.98,236.0
68.99,210.0
69.0,208.0
69.01,225.0
69.02,251.0
69.03,214.0
69.04,204.0
69.05,216.0
69.06,257.0
69.07,216.0
69.08,237.0
69.09,200.0
69.1,228.0
69.11,234.0
69.12,213.0
69.13,261.0
69.14,230.0
69.15,212.0
69.16,225.0
69.17,226.0
69.18,224.0
69.19,257.0
69.2,239.0
69.21,238.0
69.22,229.0
69.23,237.0
69.24,255.0
69.25,205.0
69.26,193.0
69.27,211.0
69.28,234.0
69.29,222.0
69.3,231.0
69.31,216.0
69.32,233.0
69.33,230.0
69.34,221.0
69.35,243.0
69.36,259.0
69.37,204.0
69.38,212.0
69.39,228.0
69.4,235.0
69.41,238.0
69.42,256.0
69.43,222.0
69.44,197.0
69.45,242.0
69.46,195.0
69.47,240.0
69.48,216.0
69.49,216.0
69.5,227.0
69.51,231.0
69.52,244.0
69.53,220.0
69.54,216.0
69.55,225.0
69.56,217.0
69.57,235.0
69.58,230.0
69.59,238.0
69.6,238.0
69.61,242.0
69.62,235.0
69.63,223.0
69.64,221.0
69.65,207.0
69.66,227.0
69.67,238.0
69.68,230.0
69.69,205.0
69.7,214.0
69.71,245.0
69.72,211.0
69.73,209.0
69.74,264.0
69.75,199.0
69.76,225.0
69.77,194.0
69.78,211.0
69.79,215.0
69.8,244.0
69.81,242.0
69.82,213.0
69.83,207.0
69.84,235.0
69.85,238.0
69.86,224.0
69.87,221.0
69.88,226.0
69.89,237.0
69.9,240.0
69.91,225.0
69.92,212.0
69.93,203.0
69.94,243.0
69.95,208.0
69.96,219.0
69.97,222.0
69.98,205.0
69.99,228.0
70.0,202.0
70.01,235.0
70.02,231.0
70.03,207.0
70.04,225.0
70.05,242.0
70.06,222.0
70.07,221.0
70.08,220.0
70.09,255.0
70.1,200.0
70.11,226.0
70.12,237.0
70.13,225.0
70.14,234.0
70.15,236.0
70.16,226.0
70.17,228.0
70.18,226.0
70.19,220.0
70.2,261.0
70.21,247.0
70.22,226.0
70.23,209.0
70.24,237.0
70.25,239.0
70.26,249.0
70.27,275.0
70.28,218.0
70.29,246.0
70.3,233.0
70.31,232.0
70.32,243.0
70.33,257.0
70.34,219.0
70.35,246.0
70.36,253.0
70.37,220.0
70.38,241.0
70.39,252.0
70.4,249.0
70.41,211.0
70.42,238.0
70.43,209.0
70.44,232.0
70.45,222.0
70.46,236.0
70.47,234.0
70.48,242.0
70.49,232.0
70.5,204.0
70.51,253.0
70.52,223.0
70.53,249.0
70.54,210.0
70.55,259.0
70.56,220.0
70.57,245.0
70.58,211.0
70.59,227.0
70.6,234.0
70.61,243.0
70.62,213.0
70.63,235.0
70.64,227.0
70.65,222.0
70.66,229.0
70.67,250.0
70.68,257.0
70.69,228.0
70.7,233.0
70.71,231.0
70.72,209.0
70.73,225.0
70.74,238.0
70.75,240.0
70.76,202.0
70.77,221.0
70.78,259.0
70.79,232.0
70.8,220.0
70.81,225.0
70.82,231.0
70.83,222.0
70.84,231.0
70.85,247.0
70.86,198.0
70.87,221.0
70.88,210.0
70.89,210.0
70.9,205.0
70.91,231.0
70.92,212.0
70.93,220.0
70.94,228.0
70.95,241.0
70.96,219.0
70.97,225.0
70.98,205.0
70.99,217.0
71.0,216.0
71.01,223.0
71.02,210.0
71.03,225.0
71.04,233.0
71.05,245.0
71.06,229.0
71.07,237.0
71.08,222.0
71.09,238.0
71.1,242.0
71.11,217.0
71.12,212.0
71.13,229.0
71.14,216.0
71.15,238.0
71.16,247.0
71.17,236.0
71.18,209.0
71.19,217.0
71.2,195.0
71.21,237.0
71.22,205.0
71.23,255.0
71.24,229.0
71.25,227.0
71.26,222.0
71.27,210.0
71.28,215.0
71.29,190.0
71.3,232.0
71.31,245.0
71.32,239.0
71.33,220.0
71.34,241.0
71.35,233.0
71.36,225.0
71.37,211.0
71.38,215.0
71.39,228.0
71.4,202.0
71.41,215.0
71.42,233.0
71.43,240.0
71.44,225.0
71.45,205.0
71.46,231.0
71.47,234.0
71.48,200.0
71.49,232.0
71.5,257.0
71.51,215.0
71.52,224.0
71.53,238.0
71.54,228.0
71.55,212.0
71.56,217.0
71.57,213.0
71.58,274.0
71.59,230.0
71.6,201.0
71.61,212.0
71.62,259.0
71.63,252.0
71.64,218.0
71.65,213.0
71.66,251.0
71.67,220.0
71.68,188.0
71.69,229.0
71.7,230.0
71.71,208.0
71.72,231.0
71.73,178.0
71.74,227.0
71.75,239.0
71.76,239.0
71.77,212.0
71.78,238.0
71.79,222.0
71.8,265.0
71.81,250.0
71.82,214.0
71.83,238.0
71.84,253.0
71.85,247.0
71.86,217.0
71.87,206.0
71.88,218.0
71.89,225.0
71.9,226.0
71.91,213.0
71.92,249.0
71.93,216.0
71.94,211.0
71.95,201.0
71.96,242.0
71.97,204.0
71.98,230.0
71.99,227.0
72.0,203.0
72.01,237.0
72.02,224.0
72.03,232.0
72.04,229.0
72.05,199.0
72.06,231.0
72.07,226.0
72.08,214.0
72.09,219.0
72.1,227.0
72.11,239.0
72.12,227.0
72.13,197.0
72.14,217.0
72.15,205.0
72.16,249.0
72.17,243.0
72.18,234.0
72.19,205.0
72.2,229.0
72.21,216.0
72.22,240.0
72.23,259.0
72.24,229.0
72.25,224.0
72.26,243.0
72.27,251.0
72.28,208.0
72.29,254.0
72.3,224.0
72.31,214.0
72.32,218.0
72.33,203.0
72.34,230.0
72.35,188.0
72.36,245.0
72.37,246.0
72.38,233.0
72.39,229.0
72.4,202.0
72.41,250.0
72.42,223.0
72.43,219.0
72.44,232.0
72.45,237.0
72.46,235.0
72.47,229.0
72.48,213.0
72.49,213.0
72.5,209.0
72.51,227.0
72.52,218.0
72.53,200.0
72.54,246.0
72.55,209.0
72.56,250.0
72.57,198.0
72.58,215.0
72.59,222.0
72.6,222.0
72.61,235.0
72.62,219.0
72.63,227.0
72.64,220.0
72.65,210.0
72.66,201.0
72.67,213.0
72.68,237.0
72.69,226.0
72.7,251.0
72.71,235.0
72.72,238.0
72.73,233.0
72.74,227.0
72.75,235.0
72.76,250.0
72.77,219.0
72.78,237.0
72.79,234.0
72.8,240.0
72.81,227.0
72.82,219.0
72.83,232.0
72.84,223.0
72.85,234.0
72.86,230.0
72.87,239.0
72.88,230.0
72.89,228.0
72.9,235.0
72.91,232.0
72.92,204.0
72.93,202.0
72.94,254.0
72.95,253.0
72.96,228.0
72.97,228.0
72.98,227.0
72.99,234.0
73.0,208.0
73.01,233.0
73.02,229.0
73.03,266.0
73.04,232.0
73.05,221.0
73.06,214.0
73.07,236.0
73.08,270.0
73.09,248.0
73.1,213.0
73.11,242.0
73.12,211.0
73.13,225.0
73.14,237.0
73.15,225.0
73.16,237.0
73.17,233.0
73.18,204.0
73.19,228.0
73.2,257.0
73.21,252.0
73.22,268.0
73.23,258.0
73.24,239.0
73.25,272.0
73.26,250.0
73.27,251.0
73.28,288.0
73.29,277.0
73.3,283.0
73.31,262.0
73.32,285.0
73.33,275.0
73.34,243.0
73.35,255.0
73.36,255.0
73.37,246.0
73.38,246.0
73.39,250.0
73.4,223.0
73.41,240.0
73.42,233.0
73.43,248.0
73.44,244.0
73.45,275.0
73.46,246.0
73.47,254.0
73.48,231.0
73.49,229.0
73.5,234.0
73.51,240.0
73.52,271.0
73.53,264.0
73.54,266.0
73.55,238.0
73.56,263.0
73.57,257.0
73.58,242.0
73.59,234.0
73.6,249.0
73.61,251.0
73.62,223.0
73.63,230.0
73.64,225.0
73.65,235.0
73.66,242.0
73.67,266.0
73.68,218.0
73.69,201.0
73.7,233.0
73.71,267.0
73.72,223.0
73.73,220.0
73.74,246.0
73.75,235.0
73.76,217.0
73.77,223.0
73.78,232.0
73.79,254.0
73.8,245.0
73.81,227.0
73.82,234.0
73.83,225.0
73.84,268.0
73.85,238.0
73.86,232.0
73.87,223.0
73.88,234.0
73.89,222.0
73.9,215.0
73.91,239.0
73.92,227.0
73.93,222.0
73.94,243.0
73.95,239.0
73.96,239.0
73.97,222.0
73.98,243.0
73.99,265.0
74.0,228.0
74.01,234.0
74.02,215.0
74.03,237.0
74.04,203.0
74.05,215.0
74.06,207.0
74.07,239.0
74.08,255.0
74.09,212.0
74.1,235.0
74.11,218.0
74.12,235.0
74.13,248.0
74.14,224.0
74.15,223.0
74.16,244.0
74.17,210.0
74.18,247.0
74.19,237.0
74.2,249.0
74.21,245.0
74.22,232.0
74.23,215.0
74.24,235.0
74.25,234.0
74.26,282.0
74.27,230.0
74.28,257.0
74.29,258.0
74.3,267.0
74.31,258.0
74.32,255.0
74.33,274.0
74.34,242.0
74.35,223.0
74.36,244.0
74.37,232.0
74.38,228.0
74.39,224.0
74.4,242.0
74.41,239.0
74.42,216.0
74.43,229.0
74.44,253.0
74.45,219.0
74.46,230.0
74.47,214.0
74.48,223.0
74.49,237.0
74.5,255.0
74.51,212.0
74.52,218.0
74.53,230.0
74.54,222.0
74.55,239.0
74.56,244.0
74.57,258.0
74.58,238.0
74.59,210.0
74.6,232.0
74.61,214.0
74.62,218.0
74.63,253.0
74.64,206.0
74.65,239.0
74.66,247.0
74.67,215.0
74.68,224.0
74.69,210.0
74.7,212.0
74.71,231.0
74.72,245.0
74.73,212.0
74.74,213.0
74.75,200.0
74.76,243.0
74.77,233.0
74.78,189.0
74.79,209.0
74.8,216.0
74.81,230.0
74.82,221.0
74.83,193.0
74.84,232.0
74.85,213.0
74.86,211.0
74.87,235.0
74.88,207.0
74.89,195.0
74.9,221.0
74.91,222.0
74.92,211.0
74.93,216.0
74.94,213.0
74.95,264.0
74.96,239.0
74.97,221.0
74.98,233.0
74.99,219.0
75.0,220.0
75.01,210.0
75.02,230.0
75.03,242.0
75.04,232.0
75.05,243.0
75.06,253.0
75.07,212.0
75.08,239.0
75.09,232.0
75.1,220.0
75.11,217.0
75.12,239.0
75.13,249.0
75.14,260.0
75.15,232.0
75.16,205.0
75.17,212.0
75.18,243.0
75.19,202.0
75.2,246.0
75.21,251.0
75.22,244.0
75.23,253.0
75.24,230.0
75.25,221.0
75.26,216.0
75.27,217.0
75.28,250.0
75.29,225.0
75.3,208.0
75.31,228.0
75.32,204.0
75.33,199.0
75.34,239.0
75.35,242.0
75.36,237.0
75.37,237.0
75.38,205.0
75.39,198.0
75.4,196.0
75.41,237.0
75.42,229.0
75.43,212.0
75.44,220.0
75.45,204.0
75.46,226.0
75.47,225.0
75.48,236.0
75.49,233.0
75.5,240.0
75.51,245.0
75.52,236.0
75.53,221.0
75.54,252.0
75.55,232.0
75.56,217.0
75.57,213.0
75.58,226.0
75.59,217.0
75.6,231.0
75.61,214.0
75.62,235.0
75.63,197.0
75.64,214.0
75.65,221.0
75.66,258.0
75.67,213.0
75.68,195.0
75.69,238.0
75.7,211.0
75.71,201.0
75.72,218.0
75.73,223.0
75.74,239.0
75.75,212.0
75.76,236.0
75.77,237.0
75.78,240.0
75.79,217.0
75.8,218.0
75.81,220.0
75.82,224.0
75.83,252.0
75.84,239.0
75.85,235.0
75.86,216.0
75.87,205.0
75.88,239.0
75.89,198.0
75.9,209.0
75.91,244.0
75.92,236.0
75.93,232.0
75.94,236.0
75.95,223.0
75.96,245.0
75.97,229.0
75.98,226.0
75.99,234.0
76.0,213.0
76.01,208.0
76.02,225.0
76.03,207.0
76.04,219.0
76.05,233.0
76.06,217.0
76.07,215.0
76.08,240.0
76.09,211.0
76.1,239.0
76.11,215.0
76.12,220.0
76.13,234.0
76.14,215.0
76.15,258.0
76.16,267.0
76.17,223.0
76.18,211.0
76.19,228.0
76.2,239.0
76.21,250.0
76.22,216.0
76.23,214.0
76.24,246.0
76.25,229.0
76.26,216.0
76.27,232.0
76.28,223.0
76.29,198.0
76.3,220.0
76.31,205.0
76.32,221.0
76.33,210.0
76.34,217.0
76.35,225.0
76.36,247.0
76.37,244.0
76.38,253.0
76.39,205.0
76.4,225.0
76.41,206.0
76.42,228.0
76.43,228.0
76.44,230.0
76.45,237.0
76.46,238.0
76.47,235.0
76.48,243.0
76.49,249.0
76.5,232.0
76.51,244.0
76.52,234.0
76.53,215.0
76.54,225.0
76.55,219.0
76.56,209.0
76.57,219.0
76.58,224.0
76.59,197.0
76.6,228.0
76.61,223.0
76.62,232.0
76.63,193.0
76.64,219.0
76.65,237.0
76.66,222.0
76.67,204.0
76.68,239.0
76.69,216.0
76.7,204.0
76.71,228.0
76.72,257.0
76.73,249.0
76.74,234.0
76.75,227.0
76.76,211.0
76.77,244.0
76.78,243.0
76.79,209.0
76.8,242.0
76.81,250.0
76.82,202.0
76.83,224.0
76.84,242.0
76.85,249.0
76.86,237.0
76.87,204.0
76.88,227.0
76.89,233.0
76.9,245.0
76.91,242.0
76.92,218.0
76.93,223.0
76.94,243.0
76.95,231.0
76.96,216.0
76.97,207.0
76.98,242.0
76.99,221.0
77.0,220.0
77.01,227.0
77.02,230.0
77.03,214.0
77.04,216.0
77.05,218.0
77.06,205.0
77.07,221.0
77.08,209.0
77.09,211.0
77.1,212.0
77.11,222.0
77.12,213.0
77.13,219.0
77.14,223.0
77.15,266.0
77.16,245.0
77.17,209.0
77.18,211.0
77.19,236.0
77.2,247.0
77.21,228.0
77.22,201.0
77.23,223.0
77.24,247.0
77.25,216.0
77.26,227.0
77.27,244.0
77.28,222.0
77.29,250.0
77.3,235.0
77.31,240.0
77.32,214.0
77.33,244.0
77.34,204.0
77.35,224.0
77.36,226.0
77.37,243.0
77.38,219.0
77.39,230.0
77.4,224.0
77.41,247.0
77.42,203.0
77.43,205.0
77.44,238.0
77.45,217.0
77.46,243.0
77.47,207.0
77.48,231.0
77.49,207.0
77.5,228.0
77.51,204.0
77.52,230.0
77.53,224.0
77.54,229.0
77.55,204.0
77.56,228.0
77.57,213.0
77.58,235.0
77.59,211.0
77.6,239.0
77.61,221.0
77.62,244.0
77.63,237.0
77.64,215.0
77.65,215.0
77.66,198.0
77.67,248.0
77.68,222.0
77.69,218.0
77.7,224.0
77.71,224.0
77.72,210.0
77.73,228.0
77.74,242.0
77.75,244.0
77.76,242.0
77.77,202.0
77.78,219.0
77.79,248.0
77.8,230.0
77.81,246.0
77.82,241.0
77.83,232.0
77.84,229.0
77.85,246.0
77.86,235.0
77.87,254.0
77.88,243.0
77.89,219.0
77.9,233.0
77.91,230.0
77.92,242.0
77.93,212.0
77.94,253.0
77.95,234.0
77.96,233.0
77.97,230.0
77.98,209.0
77.99,220.0
78.0,250.0
78.01,235.0
78.02,217.0
78.03,242.0
78.04,215.0
78.05,213.0
78.06,229.0
78.07,238.0
78.08,248.0
78.09,210.0
78.1,230.0
78.11,225.0
78.12,236.0
78.13,242.0
78.14,218.0
78.15,269.0
78.16,222.0
78.17,218.0
78.18,256.0
78.19,267.0
78.2,256.0
78.21,214.0
78.22,254.0
78.23,232.0
78.24,205.0
78.25,242.0
78.26,220.0
78.27,254.0
78.28,245.0
78.29,225.0
78.3,223.0
78.31,227.0
78.32,229.0
78.33,216.0
78.34,240.0
78.35,235.0
78.36,202.0
78.37,246.0
78.38,227.0
78.39,219.0
78.4,236.0
78.41,238.0
78.42,241.0
78.43,254.0
78.44,226.0
78.45,224.0
78.46,244.0
78.47,217.0
78.48,237.0
78.49,251.0
78.5,234.0
78.51,176.0
78.52,218.0
78.53,220.0
78.54,223.0
78.55,221.0
78.56,217.0
78.57,214.0
78.58,217.0
78.59,246.0
78.6,227.0
78.61,235.0
78.62,224.0
78.63,213.0
78.64,216.0
78.65,229.0
78.66,252.0
78.67,238.0
78.68,220.0
78.69,229.0
78.7,212.0
78.71,233.0
78.72,250.0
78.73,214.0
78.74,235.0
78.75,220.0
78.76,203.0
78.77,258.0
78.78,221.0
78.79,235.0
78.8,221.0
78.81,234.0
78.82,222.0
78.83,248.0
78.84,222.0
78.85,245.0
78.86,237.0
78.87,234.0
78.88,217.0
78.89,199.0
78.9,188.0
78.91,201.0
78.92,211.0
78.93,198.0
78.94,250.0
78.95,229.0
78.96,237.0
78.97,219.0
78.98,199.0
78.99,196.0
79.0,232.0
79.01,226.0
79.02,237.0
79.03,230.0
79.04,239.0
79.05,232.0
79.06,226.0
79.07,229.0
79.08,222.0
79.09,215.0
79.1,250.0
79.11,212.0
79.12,236.0
79.13,233.0
79.14,200.0
79.15,204.0
79.16,211.0
79.17,198.0
79.18,231.0
79.19,226.0
79.2,242.0
79.21,234.0
79.22,216.0
79.23,244.0
79.24,221.0
79.25,219.0
79.26,255.0
79.27,247.0
79.28,251.0
79.29,218.0
79.3,225.0
79.31,217.0
79.32,222.0
79.33,232.0
79.34,219.0
79.35,260.0
79.36,224.0
79.37,238.0
79.38,230.0
79.39,227.0
79.4,205.0
79.41,232.0
79.42,233.0
79.43,232.0
79.44,216.0
79.45,228.0
79.46,221.0
79.47,235.0
79.48,208.0
79.49,217.0
79.5,245.0
79.51,245.0
79.52,203.0
79.53,231.0
79.54,215.0
79.55,225.0
79.56,198.0
79.57,227.0
79.58,216.0
79.59,226.0
79.6,238.0
79.61,216.0
79.62,225.0
79.63,194.0
79.64,230.0
79.65,232.0
79.66,234.0
79.67,241.0
79.68,221.0
79.69,212.0
79.7,225.0
79.71,216.0
79.72,226.0
79.73,220.0
79.74,220.0
79.75,208.0
79.76,240.0
79.77,221.0
79.78,212.0
79.79,226.0
79.8,204.0
79.81,246.0
79.82,213.0
79.83,212.0
79.84,219.0
79.85,242.0
79.86,245.0
79.87,226.0
79.88,217.0
79.89,209.0
79.9,235.0
79.91,234.0
79.92,223.0
79.93,216.0
79.94,223.0
79.95,205.0
79.96,223.0
79.97,221.0
79.98,198.0
79.99,211.0
80.0,237.0
80.01,237.0
80.02,236.0
80.03,219.0
80.04,227.0
80.05,203.0
80.06,230.0
80.07,216.0
80.08,233.0
80.09,252.0
80.1,224.0
80.11,216.0
80.12,245.0
80.13,240.0
80.14,225.0
80.15,202.0
80.16,214.0
80.17,254.0
80.18,195.0
80.19,206.0
80.2,214.0
80.21,222.0
80.22,216.0
80.23,225.0
80.24,205.0
80.25,207.0
80.26,244.0
80.27,218.0
80.28,237.0
80.29,203.0
80.3,218.0
80.31,239.0
80.32,186.0
80.33,220.0
80.34,193.0
80.35,233.0
80.36,238.0
80.37,229.0
80.38,220.0
80.39,241.0
80.4,230.0
80.41,239.0
80.42,211.0
80.43,233.0
80.44,237.0
80.45,248.0
80.46,228.0
80.47,214.0
80.48,214.0
80.49,226.0
80.5,226.0
80.51,212.0
80.52,235.0
80.53,231.0
80.54,218.0
80.55,225.0
80.56,219.0
80.57,237.0
80.58,209.0
80.59,202.0
80.6,210.0
80.61,198.0
80.62,217.0
80.63,227.0
80.64,188.0
80.65,211.0
80.66,235.0
80.67,227.0
80.68,236.0
80.69,219.0
80.7,249.0
80.71,239.0
80.72,242.0
80.73,217.0
80.74,261.0
80.75,238.0
80.76,192.0
80.77,226.0
80.78,219.0
80.79,224.0
80.8,229.0
80.81,238.0
80.82,212.0
80.83,244.0
80.84,217.0
80.85,231.0
80.86,217.0
80.87,234.0
80.88,212.0
80.89,221.0
80.9,263.0
80.91,226.0
80.92,223.0
80.93,223.0
80.94,203.0
80.95,258.0
80.96,257.0
80.97,222.0
80.98,237.0
80.99,219.0
81.0,230.0
81.01,226.0
81.02,217.0
81.03,232.0
81.04,225.0
81.05,200.0
81.06,229.0
81.07,213.0
81.08,221.0
81.09,207.0
81.1,236.0
81.11,227.0
81.12,227.0
81.13,235.0
81.14,243.0
81.15,202.0
81.16,246.0
81.17,242.0
81.18,232.0
81.19,231.0
81.2,246.0
81.21,234.0
81.22,233.0
81.23,235.0
81.24,246.0
81.25,237.0
81.26,248.0
81.27,211.0
81.28,191.0
81.29,221.0
81.3,220.0
81.31,224.0
81.32,245.0
81.33,208.0
81.34,239.0
81.35,223.0
81.36,232.0
81.37,227.0
81.38,218.0
81.39,240.0
81.4,225.0
81.41,251.0
81.42,212.0
81.43,251.0
81.44,232.0
81.45,235.0
81.46,251.0
81.47,242.0
81.48,223.0
81.49,236.0
81.5,222.0
81.51,216.0
81.52,234.0
81.53,224.0
81.54,220.0
81.55,234.0
81.56,244.0
81.57,217.0
81.58,226.0
81.59,228.0
81.6,230.0
81.61,216.0
81.62,238.0
81.63,194.0
81.64,206.0
81.65,214.0
81.66,230.0
81.67,234.0
81.68,211.0
81.69,201.0
81.7,233.0
81.71,240.0
81.72,196.0
81.73,240.0
81.74,211.0
81.75,217.0
81.76,214.0
81.77,238.0
81.78,199.0
81.79,238.0
81.8,243.0
81.81,220.0
81.82,229.0
81.83,242.0
81.84,230.0
81.85,233.0
81.86,213.0
81.87,233.0
81.88,222.0
81.89,209.0
81.9,207.0
81.91,216.0
81.92,220.0
81.93,220.0
81.94,240.0
81.95,232.0
81.96,217.0
81.97,235.0
81.98,208.0
81.99,231.0
82.0,220.0
82.01,219.0
82.02,227.0
82.03,225.0
82.04,206.0
82.05,212.0
82.06,242.0
82.07,221.0
82.08,219.0
82.09,199.0
82.1,200.0
82.11,217.0
82.12,230.0
82.13,218.0
82.14,214.0
82.15,215.0
82.16,230.0
82.17,257.0
82.18,201.0
82.19,222.0
82.2,217.0
82.21,194.0
82.22,217.0
82.23,230.0
82.24,231.0
82.25,257.0
82.26,236.0
82.27,223.0
82.28,267.0
82.29,215.0
82.3,197.0
82.31,211.0
82.32,213.0
82.33,254.0
82.34,237.0
82.35,237.0
82.36,208.0
82.37,236.0
82.38,225.0
82.39,243.0
82.4,244.0
82.41,232.0
82.42,214.0
82.43,235.0
82.44,217.0
82.45,236.0
82.46,214.0
82.47,206.0
82.48,240.0
82.49,249.0
82.5,237.0
82.51,238.0
82.52,241.0
82.53,251.0
82.54,251.0
82.55,204.0
82.56,247.0
82.57,203.0
82.58,209.0
82.59,223.0
82.6,226.0
82.61,221.0
82.62,241.0
82.63,228.0
82.64,187.0
82.65,216.0
82.66,208.0
82.67,201.0
82.68,243.0
82.69,238.0
82.7,229.0
82.71,237.0
82.72,224.0
82.73,240.0
82.74,220.0
82.75,233.0
82.76,217.0
82.77,235.0
82.78,197.0
82.79,251.0
82.8,211.0
82.81,239.0
82.82,225.0
82.83,244.0
82.84,238.0
82.85,212.0
82.86,228.0
82.87,246.0
82.88,242.0
82.89,253.0
82.9,215.0
82.91,234.0
82.92,213.0
82.93,211.0
82.94,231.0
82.95,233.0
82.96,233.0
82.97,199.0
82.98,236.0
82.99,209.0
83.0,221.0
83.01,191.0
83.02,230.0
83.03,216.0
83.04,208.0
83.05,228.0
83.06,231.0
83.07,227.0
83.08,241.0
83.09,225.0
83.1,227.0
83.11,242.0
83.12,206.0
83.13,206.0
83.14,226.0
83.15,228.0
83.16,213.0
83.17,217.0
83.18,220.0
83.19,242.0
83.2,211.0
83.21,233.0
83.22,222.0
83.23,239.0
83.24,248.0
83.25,227.0
83.26,241.0
83.27,218.0
83.28,222.0
83.29,248.0
83.3,245.0
83.31,236.0
83.32,229.0
83.33,251.0
83.34,242.0
83.35,228.0
83.36,241.0
83.37,237.0
83.38,248.0
83.39,237.0
83.4,214.0
83.41,217.0
83.42,199.0
83.43,226.0
83.44,227.0
83.45,234.0
83.46,225.0
83.47,222.0
83.48,236.0
83.49,246.0
83.5,215.0
83.51,233.0
83.52,232.0
83.53,258.0
83.54,216.0
83.55,206.0
83.56,229.0
83.57,209.0
83.58,219.0
83.59,226.0
83.6,208.0
83.61,241.0
83.62,228.0
83.63,205.0
83.64,223.0
83.65,224.0
83.66,225.0
83.67,216.0
83.68,227.0
83.69,213.0
83.7,224.0
83.71,254.0
83.72,178.0
83.73,221.0
83.74,233.0
83.75,207.0
83.76,231.0
83.77,219.0
83.78,213.0
83.79,208.0
83.8,219.0
83.81,228.0
83.82,238.0
83.83,229.0
83.84,199.0
83.85,202.0
83.86,235.0
83.87,263.0
83.88,212.0
83.89,229.0
83.9,235.0
83.91,219.0
83.92,234.0
83.93,210.0
83.94,211.0
83.95,227.0
83.96,258.0
83.97,255.0
83.98,196.0
83.99,197.0
84.0,217.0
84.01,188.0
84.02,255.0
84.03,247.0
84.04,224.0
84.05,210.0
84.06,225.0
84.07,204.0
84.08,249.0
84.09,220.0
84.1,212.0
84.11,252.0
84.12,205.0
84.13,227.0
84.14,210.0
84.15,208.0
84.16,207.0
84.17,239.0
84.18,236.0
84.19,219.0
84.2,224.0
84.21,228.0
84.22,209.0
84.23,214.0
84.24,218.0
84.25,227.0
84.26,231.0
84.27,234.0
84.28,223.0
84.29,231.0
84.3,233.0
84.31,219.0
84.32,240.0
84.33,232.0
84.34,222.0
84.35,229.0
84.36,223.0
84.37,235.0
84.38,243.0
84.39,226.0
84.4,211.0
84.41,203.0
84.42,240.0
84.43,233.0
84.44,237.0
84.45,202.0
84.46,205.0
84.47,227.0
84.48,245.0
84.49,236.0
84.5,238.0
84.51,219.0
84.52,225.0
84.53,245.0
84.54,242.0
84.55,221.0
84.56,201.0
84.57,197.0
84.58,220.0
84.59,227.0
84.6,240.0
84.61,217.0
84.62,219.0
84.63,241.0
84.64,221.0
84.65,265.0
84.66,205.0
84.67,238.0
84.68,232.0
84.69,212.0
84.7,200.0
84.71,211.0
84.72,226.0
84.73,227.0
84.74,238.0
84.75,231.0
84.76,196.0
84.77,247.0
84.78,232.0
84.79,222.0
84.8,233.0
84.81,212.0
84.82,216.0
84.83,228.0
84.84,219.0
84.85,224.0
84.86,249.0
84.87,212.0
84.88,203.0
84.89,232.0
84.9,220.0
84.91,209.0
84.92,226.0
84.93,230.0
84.94,222.0
84.95,232.0
84.96,228.0
84.97,223.0
84.98,222.0
84.99,215.0
85.0,249.0
85.01,255.0
85.02,216.0
85.03,205.0
85.04,221.0
85.05,228.0
85.06,225.0
85.07,230.0
85.08,228.0
85.09,232.0
85.1,237.0
85.11,243.0
85.12,248.0
85.13,233.0
85.14,236.0
85.15,250.0
85.16,243.0
85.17,244.0
85.18,218.0
85.19,231.0
85.2,235.0
85.21,248.0
85.22,214.0
85.23,224.0
85.24,222.0
85.25,219.0
85.26,239.0
85.27,236.0
85.28,201.0
85.29,238.0
85.3,202.0
85.31,212.0
85.32,219.0
85.33,240.0
85.34,234.0
85.35,215.0
85.36,212.0
85.37,217.0
85.38,250.0
85.39,208.0
85.4,194.0
85.41,231.0
85.42,245.0
85.43,199.0
85.44,207.0
85.45,215.0
85.46,250.0
85.47,234.0
85.48,254.0
85.49,226.0
85.5,247.0
85.51,237.0
85.52,229.0
85.53,243.0
85.54,201.0
85.55,228.0
85.56,222.0
85.57,230.0
85.58,223.0
85.59,219.0
85.6,214.0
85.61,208.0
85.62,220.0
85.63,213.0
85.64,216.0
85.65,245.0
85.66,251.0
85.67,234.0
85.68,210.0
85.69,225.0
85.7,224.0
85.71,246.0
85.72,192.0
85.73,214.0
85.74,234.0
85.75,230.0
85.76,231.0
85.77,230.0
85.78,233.0
85.79,223.0
85.8,227.0
85.81,226.0
85.82,239.0
85.83,219.0
85.84,251.0
85.85,271.0
85.86,253.0
85.87,229.0
85.88,256.0
85.89,251.0
85.9,242.0
85.91,255.0
85.92,250.0
85.93,226.0
85.94,257.0
85.95,231.0
85.96,225.0
85.97,237.0
85.98,249.0
85.99,233.0
86.0,245.0
86.01,202.0
86.02,242.0
86.03,261.0
86.04,216.0
86.05,209.0
86.06,232.0
86.07,230.0
86.08,218.0
86.09,233.0
86.1,223.0
86.11,250.0
86.12,232.0
86.13,238.0
86.14,242.0
86.15,221.0
86.16,239.0
86.17,238.0
86.18,217.0
86.19,210.0
86.2,236.0
86.21,218.0
86.22,229.0
86.23,256.0
86.24,221.0
86.25,222.0
86.26,244.0
86.27,227.0
86.28,226.0
86.29,227.0
86.3,215.0
86.31,232.0
86.32,220.0
86.33,220.0
86.34,222.0
86.35,222.0
86.36,228.0
86.37,229.0
86.38,229.0
86.39,191.0
86.4,250.0
86.41,224.0
86.42,232.0
86.43,241.0
86.44,206.0
86.45,213.0
86.46,216.0
86.47,244.0
86.48,231.0
86.49,253.0
86.5,206.0
86.51,212.0
86.52,261.0
86.53,196.0
86.54,237.0
86.55,190.0
86.56,213.0
86.57,212.0
86.58,221.0
86.59,228.0
86.6,228.0
86.61,221.0
86.62,236.0
86.63,212.0
86.64,225.0
86.65,215.0
86.66,234.0
86.67,238.0
86.68,207.0
86.69,247.0
86.7,215.0
86.71,215.0
86.72,222.0
86.73,261.0
86.74,259.0
86.75,216.0
86.76,242.0
86.77,218.0
86.78,211.0
86.79,205.0
86.8,229.0
86.81,227.0
86.82,233.0
86.83,233.0
86.84,231.0
86.85,239.0
86.86,237.0
86.87,218.0
86.88,222.0
86.89,203.0
86.9,234.0
86.91,234.0
86.92,201.0
86.93,216.0
86.94,253.0
86.95,234.0
86.96,223.0
86.97,237.0
86.98,225.0
86.99,239.0
87.0,242.0
87.01,254.0
87.02,215.0
87.03,251.0
87.04,256.0
87.05,214.0
87.06,202.0
87.07,212.0
87.08,229.0
87.09,223.0
87.1,198.0
87.11,202.0
87.12,199.0
87.13,198.0
87.14,220.0
87.15,230.0
87.16,251.0
87.17,247.0
87.18,237.0
87.19,206.0
87.2,229.0
87.21,228.0
87.22,202.0
87.23,233.0
87.24,245.0
87.25,225.0
87.26,217.0
87.27,232.0
87.28,235.0
87.29,256.0
87.3,237.0
87.31,243.0
87.32,243.0
87.33,218.0
87.34,236.0
87.35,220.0
87.36,240.0
87.37,248.0
87.38,226.0
87.39,226.0
87.4,199.0
87.41,233.0
87.42,223.0
87.43,224.0
87.44,259.0
87.45,225.0
87.46,229.0
87.47,220.0
87.48,261.0
87.49,228.0
87.5,234.0
87.51,210.0
87.52,209.0
87.53,228.0
87.54,254.0
87.55,222.0
87.56,208.0
87.57,211.0
87.58,232.0
87.59,208.0
87.6,225.0
87.61,218.0
87.62,230.0
87.63,233.0
87.64,243.0
87.65,221.0
87.66,216.0
87.67,214.0
87.68,212.0
87.69,255.0
87.7,221.0
87.71,239.0
87.72,232.0
87.73,228.0
87.74,209.0
87.75,242.0
87.76,231.0
87.77,231.0
87.78,237.0
87.79,236.0
87.8,209.0
87.81,249.0
87.82,233.0
87.83,226.0
87.84,258.0
87.85,252.0
87.86,214.0
87.87,220.0
87.88,243.0
87.89,231.0
87.9,215.0
87.91,214.0
87.92,228.0
87.93,216.0
87.94,246.0
87.95,242.0
87.96,216.0
87.97,229.0
87.98,214.0
87.99,221.0
88.0,232.0
88.01,252.0
88.02,241.0
88.03,195.0
88.04,210.0
88.05,224.0
88.06,237.0
88.07,230.0
88.08,249.0
88.09,241.0
88.1,242.0
88.11,223.0
88.12,254.0
88.13,219.0
88.14,220.0
88.15,215.0
88.16,232.0
88.17,205.0
88.18,188.0
88.19,207.0
88.2,237.0
88.21,233.0
88.22,214.0
88.23,232.0
88.24,214.0
88.25,209.0
88.26,237.0
88.27,245.0
88.28,219.0
88.29,221.0
88.3,241.0
88.31,217.0
88.32,219.0
88.33,196.0
88.34,208.0
88.35,231.0
88.36,227.0
88.37,248.0
88.38,220.0
88.39,208.0
88.4,229.0
88.41,250.0
88.42,243.0
88.43,236.0
88.44,240.0
88.45,240.0
88.46,241.0
88.47,226.0
88.48,238.0
88.49,218.0
88.5,241.0
88.51,238.0
88.52,244.0
88.53,258.0
88.54,224.0
88.55,225.0
88.56,231.0
88.57,227.0
88.58,232.0
88.59,249.0
88.6,242.0
88.61,229.0
88.62,306.0
88.63,257.0
88.64,283.0
88.65,229.0
88.66,260.0
88.67,272.0
88.68,257.0
88.69,305.0
88.7,314.0
88.71,292.0
88.72,258.0
88.73,281.0
88.74,278.0
88.75,245.0
88.76,282.0
88.77,289.0
88.78,245.0
88.79,265.0
88.8,256.0
88.81,261.0
88.82,242.0
88.83,260.0
88.84,226.0
88.85,229.0
88.86,243.0
88.87,223.0
88.88,242.0
88.89,251.0
88.9,245.0
88.91,246.0
88.92,245.0
88.93,261.0
88.94,269.0
88.95,270.0
88.96,258.0
88.97,290.0
88.98,257.0
88.99,252.0
89.0,286.0
89.01,220.0
89.02,272.0
89.03,266.0
89.04,248.0
89.05,270.0
89.06,247.0
89.07,248.0
89.08,259.0
89.09,232.0
89.1,235.0
89.11,211.0
89.12,244.0
89.13,243.0
89.14,216.0
89.15,219.0
89.16,221.0
89.17,223.0
89.18,223.0
89.19,220.0
89.2,231.0
89.21,258.0
89.22,211.0
89.23,202.0
89.24,242.0
89.25,221.0
89.26,256.0
89.27,243.0
89.28,257.0
89.29,235.0
89.3,224.0
89.31,213.0
89.32,203.0
89.33,253.0
89.34,239.0
89.35,247.0
89.36,214.0
89.37,214.0
89.38,227.0
89.39,225.0
89.4,243.0
89.41,227.0
89.42,242.0
89.43,240.0
89.44,251.0
89.45,212.0
89.46,242.0
89.47,224.0
89.48,236.0
89.49,210.0
89.5,252.0
89.51,235.0
89.52,214.0
89.53,197.0
89.54,232.0
89.55,241.0
89.56,209.0
89.57,233.0
89.58,221.0
89.59,212.0
89.6,239.0
89.61,226.0
89.62,229.0
89.63,226.0
89.64,243.0
89.65,208.0
89.66,211.0
89.67,237.0
89.68,238.0
89.69,222.0
89.7,214.0
89.71,213.0
89.72,222.0
89.73,244.0
89.74,230.0
89.75,227.0
89.76,243.0
89.77,194.0
89.78,234.0
89.79,226.0
89.8,244.0
89.81,229.0
89.82,203.0
89.83,198.0
89.84,216.0
89.85,230.0
89.86,201.0
89.87,208.0
89.88,251.0
89.89,208.0
89.9,260.0
89.91,233.0
89.92,213.0
89.93,223.0
89.94,214.0
89.95,235.0
89.96,210.0
89.97,228.0
89.98,230.0
89.99,222.0
90.0,182.0
