      Chromite
      Diffraction data computed using the structure from the paper listed below, 
      along with the cell parameters refined from the powder pattern of R110059
      Lenaz D, Logvinova A M, Princivalle F, Sobolev N V
      American Mineralogists 94 (2009) 1067-1070
      Structural parameters of chromite included in diamond and kimberlites
      from Siberia: A new tool for discriminating ultramafic source
      Locality: Udachnaya mine, Daldyn kimberlitic field, close to Arctic Circle, Russia
      Note: sample UDK1
      _database_code_amcsd 0004961

      CELL PARAMETERS:   8.3260  8.3260  8.3260   90.000   90.000   90.000
      ALTERNATE SETTING FOR SPACE GROUP: Fd3m      

           ATOM        X         Y         Z     OCCUPANCY  ISO(B)
            Mg     0.12500   0.12500   0.12500     0.567     0.458
            Mn     0.12500   0.12500   0.12500     0.009     0.458
            Fe     0.12500   0.12500   0.12500     0.401     0.458
            Fe     0.12500   0.12500   0.12500     0.022     0.458
            Al     0.50000   0.50000   0.50000     0.095     0.292
            Ti     0.50000   0.50000   0.50000     0.002     0.292
            Cr     0.50000   0.50000   0.50000     0.875     0.292
            Fe     0.50000   0.50000   0.50000     0.011     0.292
            Fe     0.50000   0.50000   0.50000     0.017     0.292
            O      0.26210   0.26210   0.26210     1.000     0.411

            X-RAY WAVELENGTH:     1.541838
            BOUNDS ON TWO THETA:    5.0  90.0
            LIMITS IMPOSED ON THE INDICES ARE:  +/-  7 +/-  7 +/-  7
            MAX. ABS. INTENSITY / VOLUME**2:      54.15491561    
            The INTENSITY cut off value is   1.00

               2-THETA      INTENSITY    D-SPACING   H   K   L
                18.46         33.47        4.8070    1   1   1
                30.36         22.66        2.9437    2   2   0
                35.77        100.00        2.5104    3   1   1
                37.42          7.36        2.4035    2   2   2
                43.48         36.13        2.0815    4   0   0
                47.61          1.00        1.9101    3   3   1
                53.95          6.78        1.6995    4   2   2
                57.52         32.53        1.6023    5   1   1
                57.52          4.45        1.6023    3   3   3
                63.17         49.18        1.4718    4   4   0
                66.43          3.67        1.4074    5   3   1
                71.69          2.22        1.3165    6   2   0
                74.77          9.02        1.2697    5   3   3
                75.79          4.46        1.2552    6   2   2
                79.81          4.62        1.2018    4   4   4
                82.79          1.96        1.1659    5   5   1
                87.72          3.33        1.1126    6   4   2
================================================================================
       XPOW Copyright 1993 Bob Downs, Ranjini Swaminathan and Kurt Bartelmehs
  For reference, see Downs et al. (1993) American Mineralogist 78, 1104-1107.
